PE FL                   SPECTRUM    ASCII       PEDS        1.60        
  -1
1D04FB~1.TXT
18/01/22
12:08:39.00
18/01/22
12:08:39.00


598.500000
1









LS55
350.00
3.00
2.50
SCAN
1
20
100
100
0
60
0
1
0
1
7
ON
600 350 
1 0 0
#HDR
-1
-1
#GR
NM

0.00002384185791015625
0.0
400.000000
0.500000
398
8
192.740000
1.048000
#DATA
400.000000	8.106999   
400.500000	7.777000   
401.000000	8.430000   
401.500000	8.560000   
402.000000	8.702000   
402.500000	9.368000   
403.000000	9.910000   
403.500000	9.785000   
404.000000	10.158000  
404.500000	11.110000  
405.000000	11.870000  
405.500000	13.472000  
406.000000	13.829000  
406.500000	15.767000  
407.000000	16.388000  
407.500000	17.606000  
408.000000	18.869000  
408.500000	20.429000  
409.000000	20.995000  
409.500000	22.382000  
410.000000	23.208000  
410.500000	25.599000  
411.000000	26.701000  
411.500000	28.031000  
412.000000	30.690000  
412.500000	34.334000  
413.000000	35.620000  
413.500000	38.940000  
414.000000	40.005000  
414.500000	42.973000  
415.000000	45.760000  
415.500000	48.090000  
416.000000	49.612000  
416.500000	53.174000  
417.000000	56.814000  
417.500000	60.533000  
418.000000	64.130000  
418.500000	67.269000  
419.000000	71.259000  
419.500000	74.639000  
420.000000	77.419000  
420.500000	81.339000  
421.000000	84.697000  
421.500000	87.631000  
422.000000	92.262000  
422.500000	96.203000  
423.000000	99.979000  
423.500000	103.027000 
424.000000	108.035000 
424.500000	110.545000 
425.000000	114.488000 
425.500000	119.055000 
426.000000	121.728000 
426.500000	123.488000 
427.000000	128.337000 
427.500000	130.974000 
428.000000	134.269000 
428.500000	138.888000 
429.000000	142.272000 
429.500000	145.710000 
430.000000	147.172000 
430.500000	149.342000 
431.000000	152.141000 
431.500000	155.307000 
432.000000	156.915000 
432.500000	160.484000 
433.000000	162.024000 
433.500000	166.914000 
434.000000	169.543000 
434.500000	170.642000 
435.000000	175.606000 
435.500000	177.973000 
436.000000	179.150000 
436.500000	180.414000 
437.000000	179.711000 
437.500000	182.613000 
438.000000	184.792000 
438.500000	186.630000 
439.000000	189.261000 
439.500000	188.274000 
440.000000	188.587000 
440.500000	189.386000 
441.000000	192.740000 
441.500000	190.043000 
442.000000	190.945000 
442.500000	191.913000 
443.000000	192.670000 
443.500000	189.843000 
444.000000	190.455000 
444.500000	190.682000 
445.000000	191.103000 
445.500000	188.750000 
446.000000	190.822000 
446.500000	191.177000 
447.000000	189.183000 
447.500000	188.245000 
448.000000	186.300000 
448.500000	182.700000 
449.000000	182.547000 
449.500000	183.040000 
450.000000	181.759000 
450.500000	183.009000 
451.000000	180.658000 
451.500000	177.918000 
452.000000	176.099000 
452.500000	174.147000 
453.000000	175.744000 
453.500000	173.346000 
454.000000	170.815000 
454.500000	168.465000 
455.000000	165.894000 
455.500000	166.806000 
456.000000	163.326000 
456.500000	161.776000 
457.000000	160.151000 
457.500000	159.901000 
458.000000	158.594000 
458.500000	157.055000 
459.000000	154.902000 
459.500000	150.828000 
460.000000	148.787000 
460.500000	148.209000 
461.000000	148.001000 
461.500000	147.082000 
462.000000	142.398000 
462.500000	142.422000 
463.000000	140.159000 
463.500000	136.747000 
464.000000	136.704000 
464.500000	133.209000 
465.000000	132.559000 
465.500000	130.556000 
466.000000	128.472000 
466.500000	129.250000 
467.000000	126.756000 
467.500000	124.060000 
468.000000	120.961000 
468.500000	122.052000 
469.000000	120.439000 
469.500000	118.350000 
470.000000	116.045000 
470.500000	114.804000 
471.000000	114.993000 
471.500000	111.893000 
472.000000	109.746000 
472.500000	108.832000 
473.000000	107.775000 
473.500000	107.678000 
474.000000	106.329000 
474.500000	104.888000 
475.000000	100.244000 
475.500000	101.550000 
476.000000	101.778000 
476.500000	97.142000  
477.000000	96.406000  
477.500000	96.155000  
478.000000	93.467000  
478.500000	93.715000  
479.000000	92.450000  
479.500000	90.071000  
480.000000	90.244000  
480.500000	87.834999  
481.000000	87.206999  
481.500000	84.554000  
482.000000	83.202000  
482.500000	83.351000  
483.000000	80.879000  
483.500000	82.045000  
484.000000	80.062000  
484.500000	79.572000  
485.000000	78.252000  
485.500000	76.715000  
486.000000	74.876000  
486.500000	72.511000  
487.000000	70.890000  
487.500000	72.384000  
488.000000	70.669000  
488.500000	69.867999  
489.000000	68.218999  
489.500000	67.697000  
490.000000	64.875000  
490.500000	63.890000  
491.000000	63.407000  
491.500000	63.835000  
492.000000	62.190000  
492.500000	61.996000  
493.000000	60.448000  
493.500000	59.139000  
494.000000	58.498000  
494.500000	58.164000  
495.000000	55.125000  
495.500000	55.829000  
496.000000	54.698000  
496.500000	53.520000  
497.000000	52.298000  
497.500000	51.609000  
498.000000	51.209000  
498.500000	50.378000  
499.000000	49.207000  
499.500000	47.931000  
500.000000	48.699000  
500.500000	47.386000  
501.000000	46.350000  
501.500000	44.957000  
502.000000	44.253000  
502.500000	44.664000  
503.000000	44.441000  
503.500000	43.675000  
504.000000	42.633000  
504.500000	41.437000  
505.000000	40.180000  
505.500000	40.437000  
506.000000	40.688000  
506.500000	39.366000  
507.000000	38.978000  
507.500000	37.402000  
508.000000	36.404000  
508.500000	36.860000  
509.000000	35.340000  
509.500000	34.760000  
510.000000	35.146000  
510.500000	33.574000  
511.000000	33.726000  
511.500000	32.209000  
512.000000	31.989000  
512.500000	31.810000  
513.000000	31.588000  
513.500000	30.408000  
514.000000	29.663000  
514.500000	28.456000  
515.000000	28.141000  
515.500000	27.586000  
516.000000	27.053000  
516.500000	25.879000  
517.000000	25.324000  
517.500000	25.358000  
518.000000	25.022000  
518.500000	24.393000  
519.000000	23.664000  
519.500000	23.777000  
520.000000	22.580000  
520.500000	21.354000  
521.000000	21.244000  
521.500000	20.934000  
522.000000	20.866000  
522.500000	19.840000  
523.000000	19.018000  
523.500000	19.882000  
524.000000	19.657000  
524.500000	18.158000  
525.000000	17.287000  
525.500000	17.091000  
526.000000	17.253000  
526.500000	17.260000  
527.000000	16.117000  
527.500000	15.661000  
528.000000	14.882000  
528.500000	15.074000  
529.000000	14.931000  
529.500000	14.322000  
530.000000	13.728000  
530.500000	13.167000  
531.000000	13.112000  
531.500000	12.987000  
532.000000	11.715000  
532.500000	12.317000  
533.000000	11.630000  
533.500000	10.656000  
534.000000	11.212000  
534.500000	10.693000  
535.000000	9.566000   
535.500000	9.752000   
536.000000	9.891999   
536.500000	9.500999   
537.000000	8.948000   
537.500000	8.552000   
538.000000	8.993000   
538.500000	8.922000   
539.000000	8.323000   
539.500000	7.803000   
540.000000	8.074999   
540.500000	7.609000   
541.000000	8.081000   
541.500000	7.749000   
542.000000	7.597000   
542.500000	7.294000   
543.000000	6.710000   
543.500000	6.656000   
544.000000	6.993000   
544.500000	6.645000   
545.000000	6.406000   
545.500000	6.250000   
546.000000	6.021000   
546.500000	5.784000   
547.000000	5.899000   
547.500000	5.943000   
548.000000	5.490000   
548.500000	5.517000   
549.000000	5.225000   
549.500000	5.163000   
550.000000	4.969000   
550.500000	5.377000   
551.000000	4.837000   
551.500000	4.652000   
552.000000	4.610000   
552.500000	4.499000   
553.000000	4.651000   
553.500000	4.408000   
554.000000	3.943000   
554.500000	4.148000   
555.000000	4.603000   
555.500000	4.025000   
556.000000	4.320000   
556.500000	4.306000   
557.000000	4.304000   
557.500000	4.012000   
558.000000	3.984000   
558.500000	3.746000   
559.000000	3.633000   
559.500000	3.454000   
560.000000	3.255000   
560.500000	3.506000   
561.000000	3.519000   
561.500000	3.380000   
562.000000	3.415000   
562.500000	3.399000   
563.000000	3.282000   
563.500000	3.134000   
564.000000	2.913000   
564.500000	3.461000   
565.000000	3.094000   
565.500000	2.845000   
566.000000	2.745000   
566.500000	2.399000   
567.000000	2.835000   
567.500000	2.804000   
568.000000	2.638000   
568.500000	2.488000   
569.000000	2.433000   
569.500000	2.337000   
570.000000	2.659000   
570.500000	2.411000   
571.000000	2.251000   
571.500000	2.810000   
572.000000	2.302000   
572.500000	2.300000   
573.000000	2.250000   
573.500000	2.089000   
574.000000	2.143000   
574.500000	2.049000   
575.000000	1.983000   
575.500000	2.023000   
576.000000	1.998000   
576.500000	2.018000   
577.000000	2.223000   
577.500000	2.145000   
578.000000	1.715000   
578.500000	1.819000   
579.000000	1.954000   
579.500000	2.018000   
580.000000	1.949000   
580.500000	1.943000   
581.000000	1.731000   
581.500000	1.829000   
582.000000	1.695000   
582.500000	1.812000   
583.000000	1.723000   
583.500000	1.693000   
584.000000	1.660000   
584.500000	1.587000   
585.000000	1.378000   
585.500000	1.634000   
586.000000	1.644000   
586.500000	1.592000   
587.000000	1.534000   
587.500000	1.377000   
588.000000	1.468000   
588.500000	1.465000   
589.000000	1.576000   
589.500000	1.251000   
590.000000	1.299000   
590.500000	1.369000   
591.000000	1.312000   
591.500000	1.139000   
592.000000	1.069000   
592.500000	1.330000   
593.000000	1.358000   
593.500000	1.267000   
594.000000	1.266000   
594.500000	1.320000   
595.000000	1.214000   
595.500000	1.230000   
596.000000	1.191000   
596.500000	1.112000   
597.000000	1.048000   
597.500000	1.164000   
598.000000	1.214000   
598.500000	1.078000   

