PE FL                   SPECTRUM    ASCII       PEDS        1.60        
  -1
1D08FB~1.TXT
18/01/22
12:57:38.00
18/01/22
12:57:38.00


598.500000
1









LS55
350.00
3.00
2.50
SCAN
1
20
100
100
0
60
0
1
0
1
7
ON
600 350 
1 0 0
#HDR
-1
-1
#GR
NM

0.00002384185791015625
0.0
400.000000
0.500000
398
8
117.395000
1.632000
#DATA
400.000000	10.980000  
400.500000	11.035000  
401.000000	11.715000  
401.500000	12.080000  
402.000000	12.432000  
402.500000	12.593000  
403.000000	13.409000  
403.500000	13.740000  
404.000000	14.427000  
404.500000	16.077000  
405.000000	17.448000  
405.500000	17.239000  
406.000000	18.062000  
406.500000	20.436000  
407.000000	20.149000  
407.500000	22.117000  
408.000000	23.763000  
408.500000	24.158000  
409.000000	25.534000  
409.500000	26.953000  
410.000000	27.754000  
410.500000	28.764000  
411.000000	30.306000  
411.500000	32.523000  
412.000000	34.365000  
412.500000	34.490000  
413.000000	36.383000  
413.500000	37.515000  
414.000000	40.628000  
414.500000	40.802000  
415.000000	43.604000  
415.500000	46.368000  
416.000000	47.179000  
416.500000	48.636000  
417.000000	52.050000  
417.500000	52.703000  
418.000000	53.230000  
418.500000	55.993000  
419.000000	59.333000  
419.500000	59.228000  
420.000000	60.689000  
420.500000	63.531000  
421.000000	66.034000  
421.500000	66.920000  
422.000000	69.322000  
422.500000	70.778000  
423.000000	72.590000  
423.500000	72.773000  
424.000000	75.443000  
424.500000	75.536000  
425.000000	79.143000  
425.500000	79.186000  
426.000000	79.861000  
426.500000	79.943000  
427.000000	82.918000  
427.500000	84.334999  
428.000000	86.446000  
428.500000	88.459000  
429.000000	89.569000  
429.500000	87.925000  
430.000000	91.385000  
430.500000	91.702000  
431.000000	94.169000  
431.500000	95.718999  
432.000000	95.496000  
432.500000	97.767000  
433.000000	97.733999  
433.500000	101.101000 
434.000000	100.596000 
434.500000	102.352000 
435.000000	101.446000 
435.500000	104.047000 
436.000000	104.203000 
436.500000	104.752000 
437.000000	106.267000 
437.500000	108.663000 
438.000000	108.864000 
438.500000	107.265000 
439.000000	109.335000 
439.500000	110.646000 
440.000000	109.362000 
440.500000	110.166000 
441.000000	110.437000 
441.500000	111.937000 
442.000000	111.325000 
442.500000	112.291000 
443.000000	113.029000 
443.500000	112.823000 
444.000000	114.196000 
444.500000	113.766000 
445.000000	113.664000 
445.500000	114.195000 
446.000000	115.204000 
446.500000	113.163000 
447.000000	114.221000 
447.500000	114.959000 
448.000000	115.968000 
448.500000	115.623000 
449.000000	115.371000 
449.500000	115.895000 
450.000000	114.624000 
450.500000	113.869000 
451.000000	116.419000 
451.500000	115.184000 
452.000000	115.392000 
452.500000	116.944000 
453.000000	117.326000 
453.500000	117.395000 
454.000000	116.498000 
454.500000	113.502000 
455.000000	115.028000 
455.500000	116.242000 
456.000000	114.422000 
456.500000	112.706000 
457.000000	113.065000 
457.500000	113.001000 
458.000000	113.073000 
458.500000	113.937000 
459.000000	115.453000 
459.500000	111.394000 
460.000000	111.558000 
460.500000	110.336000 
461.000000	110.028000 
461.500000	110.075000 
462.000000	110.802000 
462.500000	110.671000 
463.000000	109.593000 
463.500000	111.545000 
464.000000	111.246000 
464.500000	110.328000 
465.000000	109.841000 
465.500000	109.895000 
466.000000	108.855000 
466.500000	108.854000 
467.000000	107.374000 
467.500000	108.034000 
468.000000	107.764000 
468.500000	107.136000 
469.000000	106.000000 
469.500000	105.782000 
470.000000	106.275000 
470.500000	107.384000 
471.000000	108.328000 
471.500000	107.547000 
472.000000	107.484000 
472.500000	104.769000 
473.000000	104.367000 
473.500000	104.237000 
474.000000	104.412000 
474.500000	105.243000 
475.000000	104.071000 
475.500000	104.490000 
476.000000	103.930000 
476.500000	104.354000 
477.000000	102.098000 
477.500000	103.339000 
478.000000	101.149000 
478.500000	100.937000 
479.000000	101.712000 
479.500000	99.700000  
480.000000	99.391000  
480.500000	99.412000  
481.000000	100.716000 
481.500000	101.149000 
482.000000	99.788000  
482.500000	99.405000  
483.000000	98.132000  
483.500000	98.476000  
484.000000	97.473000  
484.500000	97.720000  
485.000000	96.337000  
485.500000	96.822000  
486.000000	96.071000  
486.500000	95.958000  
487.000000	93.505000  
487.500000	95.246000  
488.000000	94.700000  
488.500000	92.334999  
489.000000	92.269000  
489.500000	92.384000  
490.000000	90.499000  
490.500000	90.414000  
491.000000	90.896000  
491.500000	90.687000  
492.000000	88.563000  
492.500000	87.290000  
493.000000	86.553000  
493.500000	88.322999  
494.000000	87.849000  
494.500000	88.197999  
495.000000	85.024000  
495.500000	84.931000  
496.000000	84.462999  
496.500000	84.069999  
497.000000	84.796000  
497.500000	82.287000  
498.000000	81.539000  
498.500000	81.709000  
499.000000	80.520000  
499.500000	80.483000  
500.000000	80.518000  
500.500000	77.912000  
501.000000	77.572999  
501.500000	77.471000  
502.000000	76.941999  
502.500000	76.501000  
503.000000	75.209000  
503.500000	74.724999  
504.000000	72.552000  
504.500000	72.434000  
505.000000	71.863000  
505.500000	73.001000  
506.000000	71.453999  
506.500000	70.065000  
507.000000	70.434000  
507.500000	68.834000  
508.000000	68.626000  
508.500000	67.989000  
509.000000	67.187000  
509.500000	66.979000  
510.000000	66.396000  
510.500000	65.143000  
511.000000	64.399000  
511.500000	62.542000  
512.000000	61.539000  
512.500000	60.842000  
513.000000	60.003000  
513.500000	59.969000  
514.000000	58.516000  
514.500000	56.560000  
515.000000	56.797000  
515.500000	55.668000  
516.000000	54.562000  
516.500000	54.192000  
517.000000	53.195000  
517.500000	51.934000  
518.000000	51.660000  
518.500000	51.647000  
519.000000	50.048000  
519.500000	49.045000  
520.000000	46.427000  
520.500000	46.175000  
521.000000	45.826000  
521.500000	45.042000  
522.000000	43.509000  
522.500000	41.988000  
523.000000	41.621000  
523.500000	41.455000  
524.000000	39.783000  
524.500000	39.845000  
525.000000	38.675000  
525.500000	37.701000  
526.000000	36.140000  
526.500000	34.896000  
527.000000	34.917000  
527.500000	34.639000  
528.000000	34.428000  
528.500000	32.430000  
529.000000	32.542000  
529.500000	31.479000  
530.000000	30.266000  
530.500000	29.340000  
531.000000	28.247000  
531.500000	28.764000  
532.000000	27.474000  
532.500000	27.937000  
533.000000	25.972000  
533.500000	24.602000  
534.000000	24.577000  
534.500000	24.685000  
535.000000	24.162000  
535.500000	23.860000  
536.000000	22.192000  
536.500000	21.412000  
537.000000	21.284000  
537.500000	21.278000  
538.000000	21.282000  
538.500000	20.262000  
539.000000	19.635000  
539.500000	18.902000  
540.000000	18.672000  
540.500000	17.974000  
541.000000	17.910000  
541.500000	17.296000  
542.000000	16.948000  
542.500000	16.782000  
543.000000	16.145000  
543.500000	16.212000  
544.000000	15.788000  
544.500000	14.528000  
545.000000	14.812000  
545.500000	14.262000  
546.000000	13.722000  
546.500000	13.519000  
547.000000	13.625000  
547.500000	13.259000  
548.000000	12.904000  
548.500000	12.836000  
549.000000	12.643000  
549.500000	11.977000  
550.000000	11.847000  
550.500000	11.968000  
551.000000	10.895000  
551.500000	11.161000  
552.000000	11.013000  
552.500000	10.452000  
553.000000	10.523000  
553.500000	10.363000  
554.000000	10.265000  
554.500000	9.558999   
555.000000	9.276000   
555.500000	9.367000   
556.000000	9.663000   
556.500000	8.922000   
557.000000	8.614000   
557.500000	8.833000   
558.000000	8.308000   
558.500000	8.365000   
559.000000	8.413000   
559.500000	8.119999   
560.000000	7.949000   
560.500000	7.492000   
561.000000	7.295000   
561.500000	7.040000   
562.000000	7.333000   
562.500000	7.535000   
563.000000	6.820000   
563.500000	7.013000   
564.000000	6.650000   
564.500000	6.696000   
565.000000	6.141000   
565.500000	6.593000   
566.000000	5.962000   
566.500000	5.488000   
567.000000	5.831000   
567.500000	5.868000   
568.000000	5.223000   
568.500000	5.603000   
569.000000	5.710000   
569.500000	5.322000   
570.000000	5.159000   
570.500000	5.187000   
571.000000	5.065000   
571.500000	5.178000   
572.000000	4.856000   
572.500000	4.149000   
573.000000	4.236000   
573.500000	4.590000   
574.000000	4.452000   
574.500000	4.356000   
575.000000	4.453000   
575.500000	4.040000   
576.000000	3.900000   
576.500000	3.866000   
577.000000	3.902000   
577.500000	3.979000   
578.000000	3.856000   
578.500000	3.654000   
579.000000	3.514000   
579.500000	3.605000   
580.000000	3.058000   
580.500000	3.251000   
581.000000	3.461000   
581.500000	3.477000   
582.000000	3.151000   
582.500000	3.013000   
583.000000	2.871000   
583.500000	2.811000   
584.000000	2.846000   
584.500000	2.823000   
585.000000	2.771000   
585.500000	2.792000   
586.000000	2.888000   
586.500000	2.404000   
587.000000	2.493000   
587.500000	2.632000   
588.000000	2.472000   
588.500000	2.482000   
589.000000	2.498000   
589.500000	2.266000   
590.000000	2.075000   
590.500000	2.166000   
591.000000	2.617000   
591.500000	2.440000   
592.000000	1.992000   
592.500000	1.906000   
593.000000	2.095000   
593.500000	2.129000   
594.000000	1.749000   
594.500000	2.013000   
595.000000	1.978000   
595.500000	1.819000   
596.000000	1.733000   
596.500000	1.847000   
597.000000	1.950000   
597.500000	1.833000   
598.000000	1.774000   
598.500000	1.632000   

