PE FL                   SPECTRUM    ASCII       PEDS        1.60        
  -1
DL74CC~1.TXT
18/01/19
13:59:56.00
18/01/19
13:59:56.00


598.500000
1









LS55
350.00
3.00
2.50
SCAN
1
20
100
100
0
60
0
1
0
1
7
ON
600 350 
1 0 0
#HDR
-1
-1
#GR
NM

0.00002384185791015625
0.0
400.000000
0.500000
398
8
700.129000
11.196000
#DATA
400.000000	73.400000  
400.500000	79.741000  
401.000000	82.587999  
401.500000	87.630000  
402.000000	94.986000  
402.500000	97.590000  
403.000000	103.824000 
403.500000	110.500000 
404.000000	118.190000 
404.500000	126.381000 
405.000000	132.176000 
405.500000	137.621000 
406.000000	144.550000 
406.500000	152.930000 
407.000000	160.461000 
407.500000	168.763000 
408.000000	179.574000 
408.500000	188.008000 
409.000000	196.111000 
409.500000	205.593000 
410.000000	213.908000 
410.500000	222.285000 
411.000000	235.093000 
411.500000	242.883000 
412.000000	254.032000 
412.500000	266.225000 
413.000000	278.264000 
413.500000	291.415000 
414.000000	304.474000 
414.500000	313.894000 
415.000000	329.238000 
415.500000	339.833000 
416.000000	352.393000 
416.500000	362.363000 
417.000000	372.741000 
417.500000	385.132000 
418.000000	399.611000 
418.500000	410.049000 
419.000000	420.527000 
419.500000	434.147000 
420.000000	444.976000 
420.500000	453.521000 
421.000000	465.604000 
421.500000	478.040000 
422.000000	489.608000 
422.500000	497.355000 
423.000000	504.058000 
423.500000	512.976000 
424.000000	523.825000 
424.500000	532.940000 
425.000000	543.914000 
425.500000	548.414000 
426.000000	559.372000 
426.500000	567.027000 
427.000000	576.582000 
427.500000	581.738000 
428.000000	594.191000 
428.500000	598.938000 
429.000000	605.630000 
429.500000	607.761999 
430.000000	613.990000 
430.500000	625.686000 
431.000000	625.735000 
431.500000	632.667000 
432.000000	638.869000 
432.500000	641.714000 
433.000000	646.933000 
433.500000	652.086000 
434.000000	656.530000 
434.500000	660.937000 
435.000000	663.854000 
435.500000	668.099000 
436.000000	674.561000 
436.500000	677.996000 
437.000000	681.570000 
437.500000	684.985000 
438.000000	687.268000 
438.500000	688.803000 
439.000000	689.015000 
439.500000	688.820000 
440.000000	689.214000 
440.500000	690.824000 
441.000000	692.766000 
441.500000	699.541000 
442.000000	695.120000 
442.500000	694.934000 
443.000000	694.642000 
443.500000	696.400000 
444.000000	696.902000 
444.500000	693.991000 
445.000000	695.183000 
445.500000	697.520000 
446.000000	700.129000 
446.500000	699.426000 
447.000000	697.479000 
447.500000	698.400000 
448.000000	697.511000 
448.500000	691.201000 
449.000000	686.597000 
449.500000	690.083999 
450.000000	686.519000 
450.500000	687.891000 
451.000000	686.956000 
451.500000	686.521000 
452.000000	679.929000 
452.500000	681.756999 
453.000000	682.813000 
453.500000	675.569000 
454.000000	676.427000 
454.500000	670.043000 
455.000000	670.077000 
455.500000	662.658000 
456.000000	665.854000 
456.500000	664.665000 
457.000000	660.169000 
457.500000	654.462000 
458.000000	654.079000 
458.500000	654.559999 
459.000000	644.671000 
459.500000	643.990000 
460.000000	645.936000 
460.500000	640.651000 
461.000000	635.729000 
461.500000	634.849000 
462.000000	634.538000 
462.500000	628.898000 
463.000000	622.327000 
463.500000	627.890000 
464.000000	619.568000 
464.500000	616.876000 
465.000000	616.861000 
465.500000	613.958999 
466.000000	616.448000 
466.500000	612.014000 
467.000000	608.650000 
467.500000	606.671000 
468.000000	602.948000 
468.500000	602.309999 
469.000000	599.174000 
469.500000	599.391000 
470.000000	592.190000 
470.500000	591.681000 
471.000000	589.897000 
471.500000	589.030000 
472.000000	588.194000 
472.500000	589.816000 
473.000000	586.373000 
473.500000	587.126000 
474.000000	581.246000 
474.500000	581.917000 
475.000000	582.740000 
475.500000	576.040000 
476.000000	573.401000 
476.500000	572.910000 
477.000000	569.208000 
477.500000	574.806000 
478.000000	568.100000 
478.500000	569.513000 
479.000000	567.910999 
479.500000	564.177000 
480.000000	560.587000 
480.500000	558.289000 
481.000000	560.434000 
481.500000	555.783000 
482.000000	552.320000 
482.500000	553.542000 
483.000000	548.778000 
483.500000	545.752000 
484.000000	543.804999 
484.500000	541.119000 
485.000000	538.115000 
485.500000	535.140000 
486.000000	535.374000 
486.500000	534.049000 
487.000000	526.413000 
487.500000	522.684999 
488.000000	521.301000 
488.500000	518.316000 
489.000000	513.877000 
489.500000	512.296000 
490.000000	507.896000 
490.500000	508.196000 
491.000000	503.322000 
491.500000	497.172000 
492.000000	492.777000 
492.500000	496.323000 
493.000000	489.548000 
493.500000	484.336000 
494.000000	482.945000 
494.500000	477.514000 
495.000000	479.688000 
495.500000	470.666000 
496.000000	472.283000 
496.500000	466.701000 
497.000000	464.899000 
497.500000	460.486000 
498.000000	458.896000 
498.500000	452.709000 
499.000000	446.897000 
499.500000	438.896000 
500.000000	436.249000 
500.500000	437.094000 
501.000000	436.608000 
501.500000	429.416000 
502.000000	430.620000 
502.500000	423.218000 
503.000000	419.434000 
503.500000	420.478000 
504.000000	414.898000 
504.500000	409.672000 
505.000000	402.077000 
505.500000	399.384000 
506.000000	397.064000 
506.500000	392.349000 
507.000000	388.293000 
507.500000	385.714000 
508.000000	385.010000 
508.500000	379.487000 
509.000000	372.579000 
509.500000	369.989000 
510.000000	366.390000 
510.500000	360.792000 
511.000000	356.160000 
511.500000	353.255000 
512.000000	346.564000 
512.500000	339.291000 
513.000000	335.923000 
513.500000	328.972000 
514.000000	328.599000 
514.500000	320.191000 
515.000000	316.372000 
515.500000	310.504000 
516.000000	304.755000 
516.500000	301.044000 
517.000000	295.398000 
517.500000	290.800000 
518.000000	285.580000 
518.500000	283.414000 
519.000000	272.885000 
519.500000	268.801000 
520.000000	264.405000 
520.500000	259.129000 
521.000000	253.657000 
521.500000	247.767000 
522.000000	242.211000 
522.500000	238.362000 
523.000000	234.071000 
523.500000	226.948000 
524.000000	223.192000 
524.500000	217.518000 
525.000000	213.033000 
525.500000	206.849000 
526.000000	205.586000 
526.500000	202.309000 
527.000000	197.453000 
527.500000	192.025000 
528.000000	184.673000 
528.500000	180.019000 
529.000000	177.426000 
529.500000	172.966000 
530.000000	167.820000 
530.500000	167.246000 
531.000000	160.470000 
531.500000	154.632000 
532.000000	153.316000 
532.500000	150.650000 
533.000000	146.769000 
533.500000	142.915000 
534.000000	140.672000 
534.500000	135.698000 
535.000000	131.164000 
535.500000	129.330000 
536.000000	124.490000 
536.500000	123.431000 
537.000000	120.902000 
537.500000	118.137000 
538.000000	114.293000 
538.500000	112.818000 
539.000000	107.744000 
539.500000	106.280000 
540.000000	106.661000 
540.500000	101.978000 
541.000000	98.405000  
541.500000	97.129000  
542.000000	94.986000  
542.500000	94.346000  
543.000000	91.846999  
543.500000	89.842000  
544.000000	87.081999  
544.500000	84.797000  
545.000000	82.608999  
545.500000	84.139000  
546.000000	81.108999  
546.500000	77.965999  
547.000000	75.906000  
547.500000	75.544000  
548.000000	73.200999  
548.500000	71.758000  
549.000000	69.172000  
549.500000	67.871000  
550.000000	66.943000  
550.500000	66.063999  
551.000000	65.553000  
551.500000	65.248000  
552.000000	63.230000  
552.500000	61.356000  
553.000000	59.609000  
553.500000	57.684000  
554.000000	57.599000  
554.500000	56.291000  
555.000000	55.309000  
555.500000	53.444000  
556.000000	52.300000  
556.500000	53.100000  
557.000000	51.393000  
557.500000	49.439000  
558.000000	49.416000  
558.500000	48.665000  
559.000000	46.900000  
559.500000	44.899000  
560.000000	44.919000  
560.500000	44.177000  
561.000000	42.744000  
561.500000	41.769000  
562.000000	39.600000  
562.500000	39.971000  
563.000000	38.696000  
563.500000	37.752000  
564.000000	38.668000  
564.500000	37.199000  
565.000000	36.976000  
565.500000	35.602000  
566.000000	34.826000  
566.500000	35.351000  
567.000000	34.021000  
567.500000	33.488000  
568.000000	33.141000  
568.500000	31.590000  
569.000000	31.739000  
569.500000	31.439000  
570.000000	29.962000  
570.500000	30.146000  
571.000000	29.015000  
571.500000	28.295000  
572.000000	28.577000  
572.500000	27.639000  
573.000000	27.158000  
573.500000	26.332000  
574.000000	25.370000  
574.500000	25.013000  
575.000000	24.791000  
575.500000	23.853000  
576.000000	24.481000  
576.500000	24.011000  
577.000000	23.562000  
577.500000	23.034000  
578.000000	22.279000  
578.500000	21.790000  
579.000000	21.300000  
579.500000	20.713000  
580.000000	20.865000  
580.500000	19.803000  
581.000000	19.093000  
581.500000	20.211000  
582.000000	20.075000  
582.500000	19.149000  
583.000000	18.317000  
583.500000	17.528000  
584.000000	17.505000  
584.500000	17.256000  
585.000000	16.806000  
585.500000	16.623000  
586.000000	16.102000  
586.500000	16.147000  
587.000000	15.921000  
587.500000	15.336000  
588.000000	15.335000  
588.500000	14.962000  
589.000000	14.928000  
589.500000	14.667000  
590.000000	14.528000  
590.500000	14.739000  
591.000000	14.596000  
591.500000	13.674000  
592.000000	14.362000  
592.500000	14.169000  
593.000000	12.973000  
593.500000	13.127000  
594.000000	12.572000  
594.500000	12.926000  
595.000000	13.444000  
595.500000	12.456000  
596.000000	12.283000  
596.500000	12.598000  
597.000000	12.172000  
597.500000	11.196000  
598.000000	11.925000  
598.500000	11.814000  

