PE FL                   SPECTRUM    ASCII       PEDS        1.60        
  -1
DMFAB8~1.TXT
18/01/12
14:17:05.00
18/01/12
14:17:05.00


598.500000
1









LS55
350.00
3.00
2.50
SCAN
1
20
100
100
0
60
0
1
0
1
7
ON
600 350 
1 0 0
#HDR
-1
-1
#GR
NM

0.00002384185791015625
0.0
400.000000
0.500000
398
8
546.065000
2.567000
#DATA
400.000000	204.035000 
400.500000	208.465000 
401.000000	217.115000 
401.500000	221.786000 
402.000000	233.527000 
402.500000	243.811000 
403.000000	251.038000 
403.500000	257.181000 
404.000000	264.075000 
404.500000	275.636000 
405.000000	287.277000 
405.500000	294.574000 
406.000000	304.768000 
406.500000	309.050000 
407.000000	319.547000 
407.500000	330.713000 
408.000000	342.077000 
408.500000	349.578000 
409.000000	356.778000 
409.500000	367.716000 
410.000000	371.207000 
410.500000	382.180000 
411.000000	392.411000 
411.500000	398.096000 
412.000000	405.984000 
412.500000	416.551000 
413.000000	422.060000 
413.500000	428.621000 
414.000000	440.370000 
414.500000	451.238000 
415.000000	456.187000 
415.500000	455.716000 
416.000000	465.533000 
416.500000	475.141000 
417.000000	476.116000 
417.500000	483.264000 
418.000000	491.982000 
418.500000	494.607000 
419.000000	496.643000 
419.500000	500.591000 
420.000000	513.166000 
420.500000	510.820000 
421.000000	514.633000 
421.500000	521.118000 
422.000000	524.312000 
422.500000	527.336000 
423.000000	526.692000 
423.500000	528.979000 
424.000000	533.687000 
424.500000	536.030999 
425.000000	543.772000 
425.500000	538.884000 
426.000000	536.653000 
426.500000	537.293000 
427.000000	540.655999 
427.500000	538.232000 
428.000000	537.547000 
428.500000	543.174000 
429.000000	539.704000 
429.500000	541.159000 
430.000000	542.519000 
430.500000	544.719000 
431.000000	541.535999 
431.500000	543.232999 
432.000000	546.065000 
432.500000	540.144000 
433.000000	538.564000 
433.500000	534.833999 
434.000000	537.164000 
434.500000	532.381999 
435.000000	533.129000 
435.500000	533.014000 
436.000000	530.030000 
436.500000	529.668000 
437.000000	526.787000 
437.500000	528.737000 
438.000000	523.107000 
438.500000	520.583999 
439.000000	520.341000 
439.500000	512.913000 
440.000000	513.780000 
440.500000	513.559000 
441.000000	507.479000 
441.500000	504.951000 
442.000000	505.202000 
442.500000	495.929000 
443.000000	488.768000 
443.500000	485.464000 
444.000000	484.548000 
444.500000	477.929000 
445.000000	476.549000 
445.500000	474.443000 
446.000000	471.765000 
446.500000	467.871000 
447.000000	458.398000 
447.500000	449.219000 
448.000000	449.062000 
448.500000	445.086000 
449.000000	439.337000 
449.500000	435.899000 
450.000000	428.898000 
450.500000	423.781000 
451.000000	418.566000 
451.500000	414.923000 
452.000000	413.802000 
452.500000	406.981000 
453.000000	399.781000 
453.500000	393.415000 
454.000000	392.231000 
454.500000	385.268000 
455.000000	379.546000 
455.500000	376.196000 
456.000000	373.427000 
456.500000	366.030000 
457.000000	355.770000 
457.500000	353.338000 
458.000000	349.455000 
458.500000	345.438000 
459.000000	337.199000 
459.500000	333.330000 
460.000000	328.862000 
460.500000	322.502000 
461.000000	320.732000 
461.500000	315.938000 
462.000000	310.052000 
462.500000	309.103000 
463.000000	300.351000 
463.500000	294.409000 
464.000000	290.512000 
464.500000	285.125000 
465.000000	285.726000 
465.500000	279.831000 
466.000000	274.416000 
466.500000	272.067000 
467.000000	268.028000 
467.500000	267.900000 
468.000000	260.784000 
468.500000	257.483000 
469.000000	254.048000 
469.500000	249.949000 
470.000000	248.062000 
470.500000	243.559000 
471.000000	240.359000 
471.500000	236.678000 
472.000000	234.778000 
472.500000	229.967000 
473.000000	228.789000 
473.500000	224.778000 
474.000000	222.191000 
474.500000	221.385000 
475.000000	218.734000 
475.500000	213.647000 
476.000000	208.297000 
476.500000	206.317000 
477.000000	203.862000 
477.500000	200.617000 
478.000000	197.897000 
478.500000	198.273000 
479.000000	192.996000 
479.500000	190.842000 
480.000000	187.879000 
480.500000	185.331000 
481.000000	185.862000 
481.500000	180.868000 
482.000000	175.533000 
482.500000	175.832000 
483.000000	171.964000 
483.500000	170.795000 
484.000000	169.212000 
484.500000	166.044000 
485.000000	164.531000 
485.500000	161.450000 
486.000000	158.132000 
486.500000	155.243000 
487.000000	154.031000 
487.500000	153.161000 
488.000000	151.717000 
488.500000	144.215000 
489.000000	143.121000 
489.500000	143.725000 
490.000000	142.147000 
490.500000	142.583000 
491.000000	139.854000 
491.500000	134.975000 
492.000000	134.149000 
492.500000	133.256000 
493.000000	131.194000 
493.500000	130.539000 
494.000000	127.814000 
494.500000	126.163000 
495.000000	124.547000 
495.500000	123.486000 
496.000000	121.546000 
496.500000	119.275000 
497.000000	118.055000 
497.500000	115.985000 
498.000000	113.195000 
498.500000	112.045000 
499.000000	111.337000 
499.500000	108.220000 
500.000000	106.252000 
500.500000	104.707000 
501.000000	103.867000 
501.500000	103.756000 
502.000000	101.630000 
502.500000	100.278000 
503.000000	98.090999  
503.500000	96.617999  
504.000000	96.174000  
504.500000	92.172000  
505.000000	92.563000  
505.500000	92.739999  
506.000000	89.858999  
506.500000	86.970000  
507.000000	87.515000  
507.500000	88.604000  
508.000000	85.818000  
508.500000	85.346999  
509.000000	82.578000  
509.500000	82.867999  
510.000000	80.295000  
510.500000	79.682000  
511.000000	77.684000  
511.500000	76.892000  
512.000000	76.311000  
512.500000	74.988000  
513.000000	72.364999  
513.500000	70.745000  
514.000000	70.424000  
514.500000	67.319000  
515.000000	67.041000  
515.500000	65.408000  
516.000000	65.623000  
516.500000	63.483000  
517.000000	63.154000  
517.500000	62.733000  
518.000000	59.602000  
518.500000	57.412000  
519.000000	59.341000  
519.500000	56.834000  
520.000000	54.955000  
520.500000	52.876000  
521.000000	51.369000  
521.500000	49.656000  
522.000000	50.236000  
522.500000	48.745000  
523.000000	48.067000  
523.500000	48.027000  
524.000000	45.797000  
524.500000	43.973000  
525.000000	42.786000  
525.500000	40.784000  
526.000000	41.952000  
526.500000	41.201000  
527.000000	40.545000  
527.500000	39.118000  
528.000000	38.128000  
528.500000	36.585000  
529.000000	35.106000  
529.500000	33.578000  
530.000000	34.907000  
530.500000	32.960000  
531.000000	32.459000  
531.500000	31.937000  
532.000000	29.867000  
532.500000	29.697000  
533.000000	29.270000  
533.500000	27.919000  
534.000000	27.060000  
534.500000	26.705000  
535.000000	25.648000  
535.500000	25.109000  
536.000000	25.831000  
536.500000	25.055000  
537.000000	23.741000  
537.500000	23.601000  
538.000000	22.808000  
538.500000	22.328000  
539.000000	21.640000  
539.500000	21.596000  
540.000000	20.691000  
540.500000	19.899000  
541.000000	20.020000  
541.500000	18.888000  
542.000000	18.252000  
542.500000	18.199000  
543.000000	18.134000  
543.500000	18.409000  
544.000000	18.007000  
544.500000	16.828000  
545.000000	16.380000  
545.500000	16.509000  
546.000000	16.177000  
546.500000	16.515000  
547.000000	15.166000  
547.500000	15.453000  
548.000000	15.377000  
548.500000	14.511000  
549.000000	13.815000  
549.500000	13.428000  
550.000000	13.827000  
550.500000	13.494000  
551.000000	13.475000  
551.500000	12.495000  
552.000000	12.393000  
552.500000	11.986000  
553.000000	12.052000  
553.500000	11.370000  
554.000000	11.121000  
554.500000	11.282000  
555.000000	10.828000  
555.500000	11.052000  
556.000000	10.658000  
556.500000	10.465000  
557.000000	10.453000  
557.500000	10.181000  
558.000000	9.712000   
558.500000	9.912000   
559.000000	9.416000   
559.500000	8.941000   
560.000000	9.175000   
560.500000	8.750999   
561.000000	8.661000   
561.500000	8.666000   
562.000000	8.916000   
562.500000	8.464000   
563.000000	8.282999   
563.500000	7.990000   
564.000000	7.746000   
564.500000	7.873000   
565.000000	7.147000   
565.500000	7.027000   
566.000000	7.321000   
566.500000	7.797000   
567.000000	7.003000   
567.500000	7.035000   
568.000000	7.065000   
568.500000	6.870000   
569.000000	6.110000   
569.500000	5.987000   
570.000000	5.923000   
570.500000	5.814000   
571.000000	6.064000   
571.500000	6.218000   
572.000000	5.922000   
572.500000	6.182000   
573.000000	5.885000   
573.500000	5.427000   
574.000000	5.584000   
574.500000	5.621000   
575.000000	5.296000   
575.500000	5.306000   
576.000000	5.177000   
576.500000	4.945000   
577.000000	5.143000   
577.500000	5.011000   
578.000000	4.692000   
578.500000	4.581000   
579.000000	4.434000   
579.500000	4.486000   
580.000000	4.290000   
580.500000	3.865000   
581.000000	3.579000   
581.500000	4.445000   
582.000000	4.298000   
582.500000	3.990000   
583.000000	4.317000   
583.500000	4.365000   
584.000000	4.202000   
584.500000	4.186000   
585.000000	3.284000   
585.500000	3.617000   
586.000000	4.065000   
586.500000	3.951000   
587.000000	3.439000   
587.500000	3.486000   
588.000000	3.285000   
588.500000	3.045000   
589.000000	3.301000   
589.500000	3.192000   
590.000000	2.981000   
590.500000	3.607000   
591.000000	3.078000   
591.500000	3.104000   
592.000000	3.412000   
592.500000	2.835000   
593.000000	3.055000   
593.500000	2.940000   
594.000000	2.720000   
594.500000	2.711000   
595.000000	2.772000   
595.500000	3.000000   
596.000000	2.741000   
596.500000	2.789000   
597.000000	2.964000   
597.500000	2.567000   
598.000000	2.665000   
598.500000	2.567000   

