PE FL                   SPECTRUM    ASCII       PEDS        1.60        
  -1
DMFAB0~1.TXT
18/01/12
14:25:35.00
18/01/12
14:25:35.00


598.500000
1









LS55
350.00
3.00
2.50
SCAN
1
20
100
100
0
60
0
1
0
1
7
ON
600 350 
1 0 0
#HDR
-1
-1
#GR
NM

0.00002384185791015625
0.0
400.000000
0.500000
398
8
535.279000
2.507000
#DATA
400.000000	193.725000 
400.500000	199.733000 
401.000000	207.892000 
401.500000	216.768000 
402.000000	224.631000 
402.500000	232.091000 
403.000000	242.665000 
403.500000	250.432000 
404.000000	257.376000 
404.500000	265.735000 
405.000000	276.827000 
405.500000	285.883000 
406.000000	291.338000 
406.500000	303.673000 
407.000000	309.768000 
407.500000	319.864000 
408.000000	326.102000 
408.500000	338.064000 
409.000000	343.733000 
409.500000	351.969000 
410.000000	356.907000 
410.500000	367.552000 
411.000000	373.969000 
411.500000	381.715000 
412.000000	392.987000 
412.500000	400.570000 
413.000000	405.482000 
413.500000	415.209000 
414.000000	420.773000 
414.500000	432.830000 
415.000000	440.355000 
415.500000	445.304000 
416.000000	449.840000 
416.500000	460.348000 
417.000000	464.381000 
417.500000	467.421000 
418.000000	477.206000 
418.500000	482.570000 
419.000000	480.812000 
419.500000	488.237000 
420.000000	495.785000 
420.500000	495.098000 
421.000000	500.240000 
421.500000	505.568000 
422.000000	513.591000 
422.500000	515.344000 
423.000000	516.905000 
423.500000	519.480000 
424.000000	520.297000 
424.500000	520.436000 
425.000000	517.477000 
425.500000	526.087000 
426.000000	526.401000 
426.500000	526.461000 
427.000000	528.288000 
427.500000	522.700000 
428.000000	523.505000 
428.500000	528.848000 
429.000000	529.230000 
429.500000	525.815000 
430.000000	531.109000 
430.500000	530.054000 
431.000000	527.116000 
431.500000	533.404000 
432.000000	535.279000 
432.500000	531.451000 
433.000000	524.452000 
433.500000	525.924000 
434.000000	525.945000 
434.500000	526.384000 
435.000000	526.015000 
435.500000	520.261000 
436.000000	517.546000 
436.500000	519.761000 
437.000000	517.309000 
437.500000	510.219000 
438.000000	515.318000 
438.500000	511.149000 
439.000000	506.891000 
439.500000	506.130000 
440.000000	500.534000 
440.500000	495.171000 
441.000000	496.413000 
441.500000	492.190000 
442.000000	494.124000 
442.500000	484.471000 
443.000000	483.740000 
443.500000	478.675000 
444.000000	477.899000 
444.500000	470.389000 
445.000000	468.910000 
445.500000	465.523000 
446.000000	459.525000 
446.500000	450.303000 
447.000000	453.338000 
447.500000	446.042000 
448.000000	442.858000 
448.500000	441.435000 
449.000000	436.815000 
449.500000	432.300000 
450.000000	425.731000 
450.500000	420.637000 
451.000000	417.150000 
451.500000	410.702000 
452.000000	403.598000 
452.500000	400.330000 
453.000000	396.103000 
453.500000	394.138000 
454.000000	388.012000 
454.500000	378.226000 
455.000000	378.397000 
455.500000	371.769000 
456.000000	367.365000 
456.500000	361.425000 
457.000000	359.096000 
457.500000	352.418000 
458.000000	348.729000 
458.500000	339.315000 
459.000000	338.601000 
459.500000	333.374000 
460.000000	327.466000 
460.500000	323.423000 
461.000000	323.553000 
461.500000	317.237000 
462.000000	312.812000 
462.500000	308.727000 
463.000000	304.396000 
463.500000	299.625000 
464.000000	293.423000 
464.500000	287.276000 
465.000000	283.885000 
465.500000	282.392000 
466.000000	278.505000 
466.500000	273.196000 
467.000000	269.319000 
467.500000	264.284000 
468.000000	259.758000 
468.500000	258.240000 
469.000000	255.153000 
469.500000	249.447000 
470.000000	246.052000 
470.500000	242.653000 
471.000000	237.396000 
471.500000	236.328000 
472.000000	236.295000 
472.500000	231.394000 
473.000000	225.707000 
473.500000	224.539000 
474.000000	222.885000 
474.500000	220.642000 
475.000000	218.577000 
475.500000	214.047000 
476.000000	209.362000 
476.500000	208.100000 
477.000000	205.007000 
477.500000	202.217000 
478.000000	197.287000 
478.500000	195.653000 
479.000000	192.432000 
479.500000	193.425000 
480.000000	187.711000 
480.500000	184.910000 
481.000000	184.247000 
481.500000	181.032000 
482.000000	181.349000 
482.500000	177.805000 
483.000000	175.570000 
483.500000	173.584000 
484.000000	170.453000 
484.500000	167.664000 
485.000000	166.055000 
485.500000	161.774000 
486.000000	160.502000 
486.500000	159.617000 
487.000000	155.476000 
487.500000	153.889000 
488.000000	153.945000 
488.500000	149.710000 
489.000000	146.608000 
489.500000	146.520000 
490.000000	143.840000 
490.500000	144.383000 
491.000000	140.370000 
491.500000	135.809000 
492.000000	136.037000 
492.500000	133.259000 
493.000000	134.424000 
493.500000	129.061000 
494.000000	129.536000 
494.500000	127.654000 
495.000000	122.860000 
495.500000	121.986000 
496.000000	122.568000 
496.500000	121.264000 
497.000000	117.369000 
497.500000	117.080000 
498.000000	115.522000 
498.500000	113.840000 
499.000000	111.542000 
499.500000	110.216000 
500.000000	108.330000 
500.500000	107.883000 
501.000000	105.277000 
501.500000	105.325000 
502.000000	104.534000 
502.500000	101.884000 
503.000000	100.009000 
503.500000	99.300000  
504.000000	98.209000  
504.500000	94.896000  
505.000000	92.611999  
505.500000	94.191999  
506.000000	93.291000  
506.500000	94.180000  
507.000000	90.871000  
507.500000	89.589000  
508.000000	87.449000  
508.500000	85.717000  
509.000000	85.572999  
509.500000	84.742000  
510.000000	81.203999  
510.500000	80.965000  
511.000000	79.655000  
511.500000	78.378000  
512.000000	76.043000  
512.500000	74.408000  
513.000000	73.194000  
513.500000	71.536000  
514.000000	71.224999  
514.500000	70.229000  
515.000000	68.878000  
515.500000	68.388000  
516.000000	64.906000  
516.500000	64.944999  
517.000000	63.172000  
517.500000	61.608000  
518.000000	60.510000  
518.500000	59.954000  
519.000000	58.422000  
519.500000	58.709000  
520.000000	56.145000  
520.500000	55.305000  
521.000000	52.811000  
521.500000	52.580000  
522.000000	51.474000  
522.500000	49.784000  
523.000000	48.359000  
523.500000	47.178000  
524.000000	46.197000  
524.500000	44.772000  
525.000000	44.082000  
525.500000	44.412000  
526.000000	42.473000  
526.500000	41.317000  
527.000000	39.892000  
527.500000	39.217000  
528.000000	38.627000  
528.500000	36.892000  
529.000000	37.567000  
529.500000	35.607000  
530.000000	34.247000  
530.500000	34.325000  
531.000000	33.171000  
531.500000	32.102000  
532.000000	32.347000  
532.500000	31.640000  
533.000000	29.633000  
533.500000	29.226000  
534.000000	28.972000  
534.500000	28.294000  
535.000000	27.692000  
535.500000	26.666000  
536.000000	25.944000  
536.500000	24.731000  
537.000000	23.673000  
537.500000	24.111000  
538.000000	22.291000  
538.500000	23.358000  
539.000000	22.273000  
539.500000	20.907000  
540.000000	21.018000  
540.500000	20.151000  
541.000000	21.081000  
541.500000	20.381000  
542.000000	19.118000  
542.500000	18.587000  
543.000000	18.338000  
543.500000	18.595000  
544.000000	17.921000  
544.500000	17.928000  
545.000000	17.373000  
545.500000	16.595000  
546.000000	16.147000  
546.500000	16.804000  
547.000000	15.320000  
547.500000	14.786000  
548.000000	15.078000  
548.500000	14.824000  
549.000000	14.342000  
549.500000	14.232000  
550.000000	13.870000  
550.500000	13.896000  
551.000000	13.089000  
551.500000	13.317000  
552.000000	12.773000  
552.500000	12.831000  
553.000000	12.086000  
553.500000	12.433000  
554.000000	11.661000  
554.500000	11.663000  
555.000000	11.082000  
555.500000	10.792000  
556.000000	10.711000  
556.500000	10.110000  
557.000000	10.913000  
557.500000	10.661000  
558.000000	9.715999   
558.500000	9.927000   
559.000000	9.676000   
559.500000	9.398000   
560.000000	9.574999   
560.500000	9.093999   
561.000000	9.015000   
561.500000	7.922000   
562.000000	8.393000   
562.500000	8.430000   
563.000000	8.369999   
563.500000	8.247999   
564.000000	8.134000   
564.500000	7.797000   
565.000000	7.662000   
565.500000	7.551000   
566.000000	7.360000   
566.500000	6.914000   
567.000000	6.598000   
567.500000	6.191000   
568.000000	7.009000   
568.500000	6.908000   
569.000000	6.293000   
569.500000	6.537000   
570.000000	6.825000   
570.500000	6.590000   
571.000000	5.857000   
571.500000	6.040000   
572.000000	5.833000   
572.500000	5.569000   
573.000000	5.798000   
573.500000	6.052000   
574.000000	5.818000   
574.500000	5.465000   
575.000000	5.320000   
575.500000	5.206000   
576.000000	5.324000   
576.500000	4.960000   
577.000000	5.097000   
577.500000	5.170000   
578.000000	4.787000   
578.500000	5.078000   
579.000000	4.628000   
579.500000	4.621000   
580.000000	4.421000   
580.500000	4.190000   
581.000000	4.412000   
581.500000	4.149000   
582.000000	4.215000   
582.500000	4.202000   
583.000000	4.123000   
583.500000	4.110000   
584.000000	4.033000   
584.500000	4.119000   
585.000000	3.910000   
585.500000	3.759000   
586.000000	3.407000   
586.500000	3.941000   
587.000000	3.536000   
587.500000	3.340000   
588.000000	3.696000   
588.500000	3.737000   
589.000000	3.195000   
589.500000	2.938000   
590.000000	3.071000   
590.500000	3.258000   
591.000000	3.191000   
591.500000	3.287000   
592.000000	3.614000   
592.500000	2.947000   
593.000000	3.232000   
593.500000	3.377000   
594.000000	2.797000   
594.500000	2.953000   
595.000000	2.648000   
595.500000	2.967000   
596.000000	2.921000   
596.500000	2.840000   
597.000000	3.144000   
597.500000	2.725000   
598.000000	2.687000   
598.500000	2.507000   

