PE FL                   SPECTRUM    ASCII       PEDS        1.60        
  -1
DMEEB4~1.TXT
18/01/12
14:52:37.00
18/01/12
14:52:37.00


598.500000
1









LS55
350.00
3.00
2.50
SCAN
1
20
100
100
0
60
0
1
0
1
7
ON
600 350 
1 0 0
#HDR
-1
-1
#GR
NM

0.00002384185791015625
0.0
400.000000
0.500000
398
8
496.385000
2.318000
#DATA
400.000000	170.944000 
400.500000	183.719000 
401.000000	189.771000 
401.500000	194.693000 
402.000000	202.177000 
402.500000	212.568000 
403.000000	220.035000 
403.500000	228.925000 
404.000000	233.358000 
404.500000	242.185000 
405.000000	247.675000 
405.500000	255.294000 
406.000000	265.609000 
406.500000	272.932000 
407.000000	284.846000 
407.500000	293.625000 
408.000000	296.032000 
408.500000	307.528000 
409.000000	313.679000 
409.500000	319.807000 
410.000000	326.145000 
410.500000	338.220000 
411.000000	344.839000 
411.500000	353.979000 
412.000000	362.719000 
412.500000	367.562000 
413.000000	375.017000 
413.500000	382.384000 
414.000000	386.742000 
414.500000	396.515000 
415.000000	405.828000 
415.500000	411.701000 
416.000000	415.114000 
416.500000	417.667000 
417.000000	426.027000 
417.500000	427.072000 
418.000000	436.951000 
418.500000	441.687000 
419.000000	443.158000 
419.500000	452.103000 
420.000000	457.499000 
420.500000	459.218000 
421.000000	462.429000 
421.500000	468.164000 
422.000000	475.659000 
422.500000	474.801000 
423.000000	477.962000 
423.500000	478.258000 
424.000000	481.794000 
424.500000	484.358000 
425.000000	484.837000 
425.500000	483.427000 
426.000000	487.157000 
426.500000	492.780000 
427.000000	491.206000 
427.500000	490.959000 
428.000000	491.516000 
428.500000	489.593000 
429.000000	492.634000 
429.500000	493.493000 
430.000000	495.224000 
430.500000	496.385000 
431.000000	492.517000 
431.500000	492.587000 
432.000000	490.302000 
432.500000	493.002000 
433.000000	492.708000 
433.500000	495.174000 
434.000000	488.366000 
434.500000	492.156000 
435.000000	492.807000 
435.500000	489.242000 
436.000000	488.606000 
436.500000	484.112000 
437.000000	488.150000 
437.500000	488.347000 
438.000000	484.240000 
438.500000	482.209000 
439.000000	480.731000 
439.500000	476.940000 
440.000000	477.407000 
440.500000	470.681000 
441.000000	472.480000 
441.500000	467.608000 
442.000000	463.652000 
442.500000	463.116000 
443.000000	457.959000 
443.500000	456.503000 
444.000000	449.248000 
444.500000	445.528000 
445.000000	446.225000 
445.500000	439.270000 
446.000000	434.168000 
446.500000	431.244000 
447.000000	433.141000 
447.500000	427.249000 
448.000000	420.263000 
448.500000	420.099000 
449.000000	414.375000 
449.500000	409.795000 
450.000000	404.550000 
450.500000	398.634000 
451.000000	400.036000 
451.500000	390.899000 
452.000000	389.978000 
452.500000	385.582000 
453.000000	378.189000 
453.500000	374.419000 
454.000000	373.076000 
454.500000	369.238000 
455.000000	360.647000 
455.500000	356.787000 
456.000000	354.005000 
456.500000	351.666000 
457.000000	344.810000 
457.500000	338.829000 
458.000000	335.442000 
458.500000	330.361000 
459.000000	329.432000 
459.500000	325.133000 
460.000000	319.379000 
460.500000	314.098000 
461.000000	312.471000 
461.500000	303.298000 
462.000000	299.700000 
462.500000	296.508000 
463.000000	291.648000 
463.500000	289.464000 
464.000000	285.904000 
464.500000	283.150000 
465.000000	277.208000 
465.500000	272.772000 
466.000000	268.737000 
466.500000	268.665000 
467.000000	261.259000 
467.500000	258.331000 
468.000000	257.082000 
468.500000	253.002000 
469.000000	251.481000 
469.500000	247.786000 
470.000000	241.551000 
470.500000	238.750000 
471.000000	234.871000 
471.500000	231.838000 
472.000000	232.238000 
472.500000	227.415000 
473.000000	226.145000 
473.500000	221.202000 
474.000000	220.732000 
474.500000	216.556000 
475.000000	214.975000 
475.500000	211.734000 
476.000000	209.461000 
476.500000	206.283000 
477.000000	203.292000 
477.500000	201.043000 
478.000000	198.570000 
478.500000	196.171000 
479.000000	198.060000 
479.500000	193.913000 
480.000000	189.659000 
480.500000	186.956000 
481.000000	183.449000 
481.500000	182.355000 
482.000000	179.904000 
482.500000	176.210000 
483.000000	175.484000 
483.500000	172.863000 
484.000000	170.668000 
484.500000	168.113000 
485.000000	166.020000 
485.500000	166.213000 
486.000000	163.585000 
486.500000	157.206000 
487.000000	155.740000 
487.500000	154.898000 
488.000000	157.448000 
488.500000	155.404000 
489.000000	150.834000 
489.500000	151.281000 
490.000000	148.441000 
490.500000	144.977000 
491.000000	141.283000 
491.500000	141.914000 
492.000000	138.933000 
492.500000	135.798000 
493.000000	135.330000 
493.500000	134.568000 
494.000000	130.924000 
494.500000	130.884000 
495.000000	130.407000 
495.500000	127.044000 
496.000000	125.238000 
496.500000	124.091000 
497.000000	124.525000 
497.500000	121.954000 
498.000000	120.135000 
498.500000	118.502000 
499.000000	115.708000 
499.500000	115.428000 
500.000000	111.541000 
500.500000	112.929000 
501.000000	107.958000 
501.500000	109.125000 
502.000000	109.445000 
502.500000	106.497000 
503.000000	105.043000 
503.500000	101.897000 
504.000000	102.404000 
504.500000	101.146000 
505.000000	100.119000 
505.500000	98.465000  
506.000000	97.406000  
506.500000	96.557000  
507.000000	93.629000  
507.500000	92.811000  
508.000000	91.858999  
508.500000	88.303000  
509.000000	87.498000  
509.500000	86.282000  
510.000000	86.712999  
510.500000	86.131000  
511.000000	82.904000  
511.500000	81.354000  
512.000000	79.815000  
512.500000	80.199000  
513.000000	80.355999  
513.500000	76.905000  
514.000000	75.840999  
514.500000	73.995000  
515.000000	71.524000  
515.500000	72.912000  
516.000000	69.894000  
516.500000	69.376000  
517.000000	68.188000  
517.500000	65.221999  
518.000000	65.200999  
518.500000	64.056000  
519.000000	60.534000  
519.500000	60.177000  
520.000000	57.253000  
520.500000	58.097000  
521.000000	57.863000  
521.500000	55.649000  
522.000000	54.298000  
522.500000	52.690000  
523.000000	50.883000  
523.500000	52.007000  
524.000000	49.812000  
524.500000	48.452000  
525.000000	46.057000  
525.500000	46.050000  
526.000000	44.516000  
526.500000	44.365000  
527.000000	43.716000  
527.500000	41.775000  
528.000000	41.241000  
528.500000	38.353000  
529.000000	38.883000  
529.500000	37.082000  
530.000000	37.069000  
530.500000	36.718000  
531.000000	34.741000  
531.500000	34.451000  
532.000000	33.214000  
532.500000	31.875000  
533.000000	31.704000  
533.500000	30.997000  
534.000000	30.912000  
534.500000	29.930000  
535.000000	28.597000  
535.500000	27.371000  
536.000000	26.779000  
536.500000	26.631000  
537.000000	26.794000  
537.500000	27.248000  
538.000000	25.430000  
538.500000	23.931000  
539.000000	24.392000  
539.500000	23.757000  
540.000000	22.552000  
540.500000	22.214000  
541.000000	20.944000  
541.500000	21.050000  
542.000000	20.416000  
542.500000	19.962000  
543.000000	19.291000  
543.500000	18.805000  
544.000000	18.864000  
544.500000	18.735000  
545.000000	17.784000  
545.500000	17.322000  
546.000000	17.210000  
546.500000	16.732000  
547.000000	16.508000  
547.500000	15.511000  
548.000000	16.153000  
548.500000	15.041000  
549.000000	15.279000  
549.500000	15.327000  
550.000000	14.431000  
550.500000	13.823000  
551.000000	13.365000  
551.500000	14.101000  
552.000000	13.163000  
552.500000	12.986000  
553.000000	12.799000  
553.500000	13.094000  
554.000000	12.951000  
554.500000	12.066000  
555.000000	12.475000  
555.500000	11.733000  
556.000000	10.981000  
556.500000	10.864000  
557.000000	10.333000  
557.500000	10.359000  
558.000000	10.324000  
558.500000	9.740000   
559.000000	9.586000   
559.500000	10.201000  
560.000000	10.235000  
560.500000	9.731000   
561.000000	8.760000   
561.500000	8.926000   
562.000000	8.573000   
562.500000	8.895000   
563.000000	8.715999   
563.500000	8.321000   
564.000000	7.905000   
564.500000	8.268000   
565.000000	8.092000   
565.500000	7.301000   
566.000000	7.302000   
566.500000	7.930000   
567.000000	7.549000   
567.500000	7.600000   
568.000000	6.683000   
568.500000	7.286000   
569.000000	6.834000   
569.500000	6.854000   
570.000000	6.963000   
570.500000	6.406000   
571.000000	6.411000   
571.500000	6.233000   
572.000000	6.272000   
572.500000	6.187000   
573.000000	6.078000   
573.500000	6.040000   
574.000000	6.158000   
574.500000	5.491000   
575.000000	5.430000   
575.500000	5.850000   
576.000000	5.891000   
576.500000	5.286000   
577.000000	4.846000   
577.500000	4.606000   
578.000000	5.261000   
578.500000	4.915000   
579.000000	4.453000   
579.500000	4.715000   
580.000000	4.419000   
580.500000	4.691000   
581.000000	4.597000   
581.500000	4.225000   
582.000000	4.319000   
582.500000	3.967000   
583.000000	4.577000   
583.500000	4.330000   
584.000000	4.020000   
584.500000	3.711000   
585.000000	3.683000   
585.500000	3.854000   
586.000000	3.410000   
586.500000	3.141000   
587.000000	3.140000   
587.500000	3.493000   
588.000000	3.008000   
588.500000	3.367000   
589.000000	3.394000   
589.500000	3.461000   
590.000000	3.155000   
590.500000	3.395000   
591.000000	3.359000   
591.500000	2.419000   
592.000000	2.916000   
592.500000	3.189000   
593.000000	2.987000   
593.500000	2.923000   
594.000000	2.914000   
594.500000	2.928000   
595.000000	2.981000   
595.500000	3.220000   
596.000000	2.730000   
596.500000	2.686000   
597.000000	2.550000   
597.500000	2.318000   
598.000000	2.737000   
598.500000	2.827000   

