PE FL                   SPECTRUM    ASCII       PEDS        1.60        
  -1
DMEEB8~1.TXT
18/01/12
14:46:40.00
18/01/12
14:46:40.00


598.500000
1









LS55
350.00
3.00
2.50
SCAN
1
20
100
100
0
60
0
1
0
1
7
ON
600 350 
1 0 0
#HDR
-1
-1
#GR
NM

0.00002384185791015625
0.0
400.000000
0.500000
398
8
503.167000
2.424000
#DATA
400.000000	183.974000 
400.500000	186.271000 
401.000000	192.622000 
401.500000	196.809000 
402.000000	206.823000 
402.500000	212.705000 
403.000000	220.058000 
403.500000	228.565000 
404.000000	237.064000 
404.500000	242.445000 
405.000000	251.916000 
405.500000	261.474000 
406.000000	269.791000 
406.500000	277.211000 
407.000000	284.979000 
407.500000	290.545000 
408.000000	301.167000 
408.500000	312.759000 
409.000000	315.129000 
409.500000	324.301000 
410.000000	332.825000 
410.500000	339.154000 
411.000000	347.667000 
411.500000	354.358000 
412.000000	365.493000 
412.500000	373.248000 
413.000000	378.610000 
413.500000	384.681000 
414.000000	394.995000 
414.500000	400.556000 
415.000000	407.897000 
415.500000	416.001000 
416.000000	417.422000 
416.500000	427.912000 
417.000000	430.977000 
417.500000	435.094000 
418.000000	439.334000 
418.500000	448.166000 
419.000000	455.329000 
419.500000	453.038000 
420.000000	457.864000 
420.500000	464.074000 
421.000000	469.754000 
421.500000	469.005000 
422.000000	473.848000 
422.500000	474.763000 
423.000000	481.428000 
423.500000	484.667000 
424.000000	487.686000 
424.500000	489.173000 
425.000000	491.433000 
425.500000	492.368000 
426.000000	494.166000 
426.500000	494.527000 
427.000000	495.752000 
427.500000	493.258000 
428.000000	495.287000 
428.500000	495.319000 
429.000000	497.434000 
429.500000	495.839000 
430.000000	497.013000 
430.500000	497.505000 
431.000000	501.327000 
431.500000	503.167000 
432.000000	499.381000 
432.500000	494.858000 
433.000000	497.926000 
433.500000	493.738000 
434.000000	495.246000 
434.500000	492.751000 
435.000000	494.969000 
435.500000	489.818000 
436.000000	492.187000 
436.500000	493.881000 
437.000000	489.655000 
437.500000	492.175000 
438.000000	485.213000 
438.500000	483.354000 
439.000000	481.834000 
439.500000	480.889000 
440.000000	477.342000 
440.500000	472.470000 
441.000000	474.261000 
441.500000	471.927000 
442.000000	464.792000 
442.500000	465.035000 
443.000000	464.200000 
443.500000	461.856000 
444.000000	451.210000 
444.500000	449.684000 
445.000000	447.494000 
445.500000	444.115000 
446.000000	440.451000 
446.500000	429.585000 
447.000000	429.365000 
447.500000	427.702000 
448.000000	425.461000 
448.500000	418.064000 
449.000000	412.340000 
449.500000	410.785000 
450.000000	408.579000 
450.500000	405.291000 
451.000000	400.692000 
451.500000	394.740000 
452.000000	392.955000 
452.500000	388.943000 
453.000000	380.320000 
453.500000	375.094000 
454.000000	371.180000 
454.500000	368.474000 
455.000000	367.194000 
455.500000	358.950000 
456.000000	354.946000 
456.500000	353.773000 
457.000000	348.755000 
457.500000	344.974000 
458.000000	339.939000 
458.500000	337.228000 
459.000000	333.113000 
459.500000	323.083000 
460.000000	321.941000 
460.500000	318.688000 
461.000000	311.726000 
461.500000	312.737000 
462.000000	305.321000 
462.500000	298.882000 
463.000000	296.660000 
463.500000	292.970000 
464.000000	285.181000 
464.500000	282.848000 
465.000000	280.210000 
465.500000	273.595000 
466.000000	272.394000 
466.500000	269.615000 
467.000000	263.437000 
467.500000	258.735000 
468.000000	256.116000 
468.500000	253.622000 
469.000000	249.587000 
469.500000	248.794000 
470.000000	245.099000 
470.500000	240.404000 
471.000000	237.860000 
471.500000	234.522000 
472.000000	233.465000 
472.500000	227.410000 
473.000000	221.966000 
473.500000	219.675000 
474.000000	217.506000 
474.500000	216.681000 
475.000000	215.174000 
475.500000	209.042000 
476.000000	208.895000 
476.500000	208.395000 
477.000000	202.977000 
477.500000	203.976000 
478.000000	200.156000 
478.500000	193.993000 
479.000000	195.927000 
479.500000	190.654000 
480.000000	188.335000 
480.500000	188.985000 
481.000000	184.074000 
481.500000	184.308000 
482.000000	180.838000 
482.500000	175.880000 
483.000000	174.082000 
483.500000	174.623000 
484.000000	171.264000 
484.500000	170.310000 
485.000000	168.828000 
485.500000	165.021000 
486.000000	160.987000 
486.500000	159.810000 
487.000000	157.412000 
487.500000	158.438000 
488.000000	154.010000 
488.500000	150.678000 
489.000000	150.438000 
489.500000	146.851000 
490.000000	144.821000 
490.500000	144.600000 
491.000000	142.280000 
491.500000	139.696000 
492.000000	140.090000 
492.500000	135.617000 
493.000000	134.891000 
493.500000	131.507000 
494.000000	130.547000 
494.500000	130.566000 
495.000000	129.127000 
495.500000	128.454000 
496.000000	126.023000 
496.500000	123.820000 
497.000000	120.504000 
497.500000	120.082000 
498.000000	118.768000 
498.500000	114.818000 
499.000000	112.875000 
499.500000	114.119000 
500.000000	112.473000 
500.500000	110.842000 
501.000000	108.964000 
501.500000	108.573000 
502.000000	106.249000 
502.500000	105.959000 
503.000000	103.610000 
503.500000	101.631000 
504.000000	100.589000 
504.500000	99.749000  
505.000000	98.583000  
505.500000	95.943000  
506.000000	94.369000  
506.500000	92.977000  
507.000000	91.733999  
507.500000	92.029000  
508.000000	90.363000  
508.500000	88.052000  
509.000000	87.622000  
509.500000	85.869000  
510.000000	85.766000  
510.500000	84.662000  
511.000000	83.264000  
511.500000	81.277000  
512.000000	80.638000  
512.500000	78.705000  
513.000000	78.179000  
513.500000	75.236999  
514.000000	73.566999  
514.500000	73.069000  
515.000000	72.035000  
515.500000	69.506000  
516.000000	69.598000  
516.500000	67.911000  
517.000000	66.060000  
517.500000	64.244000  
518.000000	63.919000  
518.500000	62.833000  
519.000000	60.962000  
519.500000	59.823000  
520.000000	59.207000  
520.500000	58.146000  
521.000000	55.338000  
521.500000	54.548000  
522.000000	52.499000  
522.500000	52.095000  
523.000000	50.772000  
523.500000	50.637000  
524.000000	48.500000  
524.500000	49.050000  
525.000000	45.969000  
525.500000	45.757000  
526.000000	44.785000  
526.500000	43.897000  
527.000000	42.487000  
527.500000	41.877000  
528.000000	40.031000  
528.500000	38.875000  
529.000000	37.637000  
529.500000	36.820000  
530.000000	36.186000  
530.500000	36.663000  
531.000000	35.383000  
531.500000	33.242000  
532.000000	31.707000  
532.500000	31.705000  
533.000000	31.367000  
533.500000	30.870000  
534.000000	29.905000  
534.500000	30.320000  
535.000000	29.601000  
535.500000	27.810000  
536.000000	27.025000  
536.500000	27.035000  
537.000000	25.983000  
537.500000	24.420000  
538.000000	24.748000  
538.500000	24.272000  
539.000000	24.125000  
539.500000	22.923000  
540.000000	21.242000  
540.500000	22.132000  
541.000000	21.262000  
541.500000	20.335000  
542.000000	19.427000  
542.500000	20.737000  
543.000000	20.365000  
543.500000	19.583000  
544.000000	18.884000  
544.500000	17.366000  
545.000000	17.800000  
545.500000	17.320000  
546.000000	17.085000  
546.500000	16.209000  
547.000000	16.271000  
547.500000	16.255000  
548.000000	15.222000  
548.500000	15.866000  
549.000000	15.623000  
549.500000	15.413000  
550.000000	14.543000  
550.500000	14.366000  
551.000000	13.936000  
551.500000	13.877000  
552.000000	13.532000  
552.500000	12.417000  
553.000000	12.754000  
553.500000	12.690000  
554.000000	12.290000  
554.500000	11.476000  
555.000000	11.373000  
555.500000	11.512000  
556.000000	11.480000  
556.500000	10.620000  
557.000000	10.929000  
557.500000	10.587000  
558.000000	10.394000  
558.500000	10.358000  
559.000000	9.962999   
559.500000	9.959000   
560.000000	9.956000   
560.500000	9.500999   
561.000000	9.529000   
561.500000	9.154000   
562.000000	8.518000   
562.500000	8.598000   
563.000000	8.493000   
563.500000	8.307000   
564.000000	7.642000   
564.500000	8.233000   
565.000000	8.121000   
565.500000	7.713000   
566.000000	8.132999   
566.500000	7.465000   
567.000000	7.319000   
567.500000	7.115000   
568.000000	7.486000   
568.500000	7.042000   
569.000000	6.951000   
569.500000	6.488000   
570.000000	6.567000   
570.500000	6.478000   
571.000000	6.633000   
571.500000	6.412000   
572.000000	6.388000   
572.500000	6.501000   
573.000000	6.073000   
573.500000	5.939000   
574.000000	5.581000   
574.500000	5.374000   
575.000000	4.965000   
575.500000	5.093000   
576.000000	5.130000   
576.500000	5.261000   
577.000000	4.781000   
577.500000	4.998000   
578.000000	5.312000   
578.500000	5.200000   
579.000000	4.953000   
579.500000	5.507000   
580.000000	4.709000   
580.500000	4.558000   
581.000000	4.355000   
581.500000	4.399000   
582.000000	3.883000   
582.500000	4.108000   
583.000000	4.252000   
583.500000	3.975000   
584.000000	4.125000   
584.500000	4.236000   
585.000000	3.741000   
585.500000	3.654000   
586.000000	3.810000   
586.500000	3.893000   
587.000000	3.762000   
587.500000	3.408000   
588.000000	3.511000   
588.500000	3.422000   
589.000000	3.585000   
589.500000	3.660000   
590.000000	3.432000   
590.500000	3.676000   
591.000000	3.137000   
591.500000	3.143000   
592.000000	3.033000   
592.500000	3.268000   
593.000000	2.733000   
593.500000	2.773000   
594.000000	3.076000   
594.500000	2.867000   
595.000000	2.911000   
595.500000	2.852000   
596.000000	2.827000   
596.500000	2.856000   
597.000000	2.576000   
597.500000	2.424000   
598.000000	2.869000   
598.500000	2.500000   

