PE FL                   SPECTRUM    ASCII       PEDS        1.60        
  -1
MI2DB2~1.TXT
18/01/18
15:23:56.00
18/01/18
15:23:56.00


598.500000
1









LS55
350.00
3.00
2.50
SCAN
1
20
100
100
0
60
0
1
0
1
7
ON
600 350 
1 0 0
#HDR
-1
-1
#GR
NM

0.00002384185791015625
0.0
400.000000
0.500000
398
8
595.214000
3.039000
#DATA
400.000000	165.890000 
400.500000	181.868000 
401.000000	189.109000 
401.500000	195.455000 
402.000000	205.245000 
402.500000	216.957000 
403.000000	222.575000 
403.500000	228.819000 
404.000000	239.087000 
404.500000	245.722000 
405.000000	255.030000 
405.500000	265.606000 
406.000000	276.430000 
406.500000	287.738000 
407.000000	298.085000 
407.500000	311.408000 
408.000000	318.058000 
408.500000	327.544000 
409.000000	335.262000 
409.500000	347.912000 
410.000000	355.764000 
410.500000	366.336000 
411.000000	374.411000 
411.500000	384.531000 
412.000000	393.911000 
412.500000	404.974000 
413.000000	418.006000 
413.500000	428.361000 
414.000000	436.863000 
414.500000	445.783000 
415.000000	450.214000 
415.500000	464.321000 
416.000000	472.379000 
416.500000	481.935000 
417.000000	490.072000 
417.500000	498.718000 
418.000000	507.731000 
418.500000	512.683000 
419.000000	514.811000 
419.500000	527.338000 
420.000000	534.021000 
420.500000	540.774000 
421.000000	549.371000 
421.500000	553.377000 
422.000000	549.432000 
422.500000	557.377000 
423.000000	564.845000 
423.500000	570.944000 
424.000000	572.917000 
424.500000	576.873000 
425.000000	577.264000 
425.500000	576.416000 
426.000000	581.194000 
426.500000	585.749000 
427.000000	588.735000 
427.500000	587.545000 
428.000000	590.353000 
428.500000	587.800000 
429.000000	584.657000 
429.500000	589.756999 
430.000000	587.621000 
430.500000	593.694000 
431.000000	594.016000 
431.500000	595.214000 
432.000000	589.939000 
432.500000	589.732999 
433.000000	590.432000 
433.500000	589.176000 
434.000000	590.614000 
434.500000	585.508000 
435.000000	586.635000 
435.500000	586.237000 
436.000000	581.870000 
436.500000	580.089000 
437.000000	582.886000 
437.500000	578.200000 
438.000000	578.203000 
438.500000	575.986000 
439.000000	573.299000 
439.500000	572.378000 
440.000000	569.258000 
440.500000	565.226000 
441.000000	556.854000 
441.500000	554.980000 
442.000000	553.404000 
442.500000	549.610000 
443.000000	546.670000 
443.500000	537.041000 
444.000000	536.532000 
444.500000	532.724000 
445.000000	524.535000 
445.500000	518.717000 
446.000000	517.278000 
446.500000	510.113000 
447.000000	508.151000 
447.500000	499.701000 
448.000000	493.017000 
448.500000	489.272000 
449.000000	484.555000 
449.500000	478.753000 
450.000000	472.610000 
450.500000	472.116000 
451.000000	462.138000 
451.500000	455.471000 
452.000000	453.467000 
452.500000	448.378000 
453.000000	441.166000 
453.500000	434.440000 
454.000000	431.127000 
454.500000	425.798000 
455.000000	418.254000 
455.500000	410.052000 
456.000000	405.188000 
456.500000	403.780000 
457.000000	397.041000 
457.500000	387.565000 
458.000000	384.990000 
458.500000	380.946000 
459.000000	376.732000 
459.500000	367.941000 
460.000000	365.834000 
460.500000	360.254000 
461.000000	355.669000 
461.500000	346.860000 
462.000000	344.062000 
462.500000	336.672000 
463.000000	336.215000 
463.500000	328.981000 
464.000000	323.843000 
464.500000	319.047000 
465.000000	316.224000 
465.500000	308.931000 
466.000000	304.915000 
466.500000	303.359000 
467.000000	297.596000 
467.500000	291.678000 
468.000000	287.991000 
468.500000	283.824000 
469.000000	280.245000 
469.500000	278.750000 
470.000000	273.389000 
470.500000	269.327000 
471.000000	266.957000 
471.500000	263.336000 
472.000000	258.944000 
472.500000	254.730000 
473.000000	254.493000 
473.500000	249.329000 
474.000000	245.191000 
474.500000	240.766000 
475.000000	240.339000 
475.500000	235.371000 
476.000000	232.841000 
476.500000	231.180000 
477.000000	227.658000 
477.500000	225.632000 
478.000000	221.454000 
478.500000	218.164000 
479.000000	216.294000 
479.500000	212.533000 
480.000000	209.990000 
480.500000	208.851000 
481.000000	204.640000 
481.500000	202.290000 
482.000000	202.441000 
482.500000	199.667000 
483.000000	193.779000 
483.500000	192.215000 
484.000000	190.542000 
484.500000	189.586000 
485.000000	188.228000 
485.500000	184.643000 
486.000000	182.582000 
486.500000	178.787000 
487.000000	176.311000 
487.500000	174.058000 
488.000000	172.340000 
488.500000	170.336000 
489.000000	168.407000 
489.500000	164.460000 
490.000000	161.859000 
490.500000	162.410000 
491.000000	161.455000 
491.500000	156.266000 
492.000000	154.575000 
492.500000	153.130000 
493.000000	147.358000 
493.500000	146.609000 
494.000000	146.996000 
494.500000	146.437000 
495.000000	143.299000 
495.500000	140.608000 
496.000000	138.460000 
496.500000	137.968000 
497.000000	135.654000 
497.500000	133.562000 
498.000000	132.853000 
498.500000	131.665000 
499.000000	129.309000 
499.500000	125.541000 
500.000000	123.961000 
500.500000	121.735000 
501.000000	119.465000 
501.500000	119.757000 
502.000000	119.953000 
502.500000	119.005000 
503.000000	117.766000 
503.500000	113.530000 
504.000000	114.931000 
504.500000	111.726000 
505.000000	110.270000 
505.500000	106.849000 
506.000000	108.152000 
506.500000	104.309000 
507.000000	103.093000 
507.500000	103.570000 
508.000000	102.612000 
508.500000	99.647000  
509.000000	98.111000  
509.500000	96.930000  
510.000000	96.882000  
510.500000	94.864999  
511.000000	93.244000  
511.500000	91.608000  
512.000000	89.387000  
512.500000	88.791000  
513.000000	87.899000  
513.500000	87.021000  
514.000000	83.747000  
514.500000	82.421000  
515.000000	80.601000  
515.500000	80.869000  
516.000000	79.447999  
516.500000	77.199000  
517.000000	75.688999  
517.500000	73.786000  
518.000000	72.245000  
518.500000	71.392000  
519.000000	70.209999  
519.500000	68.751000  
520.000000	67.476000  
520.500000	67.003000  
521.000000	64.233999  
521.500000	62.842000  
522.000000	61.375000  
522.500000	60.401000  
523.000000	59.950000  
523.500000	56.432000  
524.000000	55.126000  
524.500000	56.066000  
525.000000	54.623000  
525.500000	52.014000  
526.000000	49.880000  
526.500000	49.624000  
527.000000	48.683000  
527.500000	46.842000  
528.000000	45.631000  
528.500000	44.624000  
529.000000	42.704000  
529.500000	43.209000  
530.000000	42.692000  
530.500000	41.204000  
531.000000	40.335000  
531.500000	38.850000  
532.000000	37.869000  
532.500000	37.079000  
533.000000	37.161000  
533.500000	35.522000  
534.000000	34.086000  
534.500000	32.673000  
535.000000	32.530000  
535.500000	32.150000  
536.000000	31.150000  
536.500000	30.076000  
537.000000	29.078000  
537.500000	27.240000  
538.000000	27.543000  
538.500000	27.395000  
539.000000	26.131000  
539.500000	25.988000  
540.000000	26.001000  
540.500000	24.929000  
541.000000	24.763000  
541.500000	23.380000  
542.000000	24.084000  
542.500000	23.037000  
543.000000	21.871000  
543.500000	21.138000  
544.000000	20.962000  
544.500000	20.475000  
545.000000	20.303000  
545.500000	19.536000  
546.000000	18.875000  
546.500000	19.110000  
547.000000	18.392000  
547.500000	18.312000  
548.000000	17.728000  
548.500000	17.816000  
549.000000	17.738000  
549.500000	17.388000  
550.000000	17.232000  
550.500000	16.003000  
551.000000	16.115000  
551.500000	14.946000  
552.000000	15.129000  
552.500000	14.918000  
553.000000	14.828000  
553.500000	13.752000  
554.000000	13.783000  
554.500000	13.568000  
555.000000	12.435000  
555.500000	12.107000  
556.000000	13.442000  
556.500000	12.632000  
557.000000	11.825000  
557.500000	12.215000  
558.000000	12.237000  
558.500000	12.153000  
559.000000	11.707000  
559.500000	11.108000  
560.000000	10.600000  
560.500000	10.048000  
561.000000	10.041000  
561.500000	10.259000  
562.000000	10.155000  
562.500000	9.836000   
563.000000	10.115000  
563.500000	9.657000   
564.000000	8.913000   
564.500000	9.359000   
565.000000	9.125000   
565.500000	9.426000   
566.000000	8.930999   
566.500000	7.909000   
567.000000	8.089000   
567.500000	8.464000   
568.000000	7.980000   
568.500000	8.398000   
569.000000	7.718000   
569.500000	8.125999   
570.000000	7.220000   
570.500000	7.346000   
571.000000	7.584000   
571.500000	7.590000   
572.000000	7.174000   
572.500000	7.046000   
573.000000	6.690000   
573.500000	6.592000   
574.000000	6.363000   
574.500000	6.861000   
575.000000	6.155000   
575.500000	6.305000   
576.000000	6.258000   
576.500000	5.945000   
577.000000	6.031000   
577.500000	6.103000   
578.000000	5.716000   
578.500000	5.836000   
579.000000	5.830000   
579.500000	5.260000   
580.000000	5.166000   
580.500000	5.000000   
581.000000	5.150000   
581.500000	5.011000   
582.000000	5.057000   
582.500000	4.821000   
583.000000	4.639000   
583.500000	4.559000   
584.000000	4.798000   
584.500000	4.487000   
585.000000	4.500000   
585.500000	4.849000   
586.000000	4.550000   
586.500000	4.218000   
587.000000	4.299000   
587.500000	4.277000   
588.000000	4.021000   
588.500000	3.945000   
589.000000	4.294000   
589.500000	4.109000   
590.000000	3.653000   
590.500000	4.248000   
591.000000	3.772000   
591.500000	3.649000   
592.000000	3.378000   
592.500000	3.695000   
593.000000	3.506000   
593.500000	3.526000   
594.000000	3.652000   
594.500000	3.403000   
595.000000	3.486000   
595.500000	3.580000   
596.000000	3.248000   
596.500000	3.039000   
597.000000	3.299000   
597.500000	3.125000   
598.000000	3.070000   
598.500000	3.054000   

