PE FL                   SPECTRUM    ASCII       PEDS        1.60        
  -1
MI4096~1.TXT
18/03/15
10:42:02.00
18/03/15
10:42:02.00


595.500000
1









LS55
350.00
11.00
3.70
SCAN
1
20
100
100
0
60
0
1
0
1
7
ON
510 350 
1 0 0
#HDR
-1
-1
#GR
NM

0.00002384185791015625
0.0
400.000000
0.500000
392
8
820.994437
4.933313
#DATA
400.000000	99.837999  
400.500000	108.211584 
401.000000	116.572090 
401.500000	124.964688 
402.000000	133.476044 
402.500000	142.172196 
403.000000	151.231126 
403.500000	160.729536 
404.000000	170.720510 
404.500000	181.159981 
405.000000	192.019324 
405.500000	203.223727 
406.000000	214.776055 
406.500000	226.721710 
407.000000	238.992740 
407.500000	251.499050 
408.000000	264.176174 
408.500000	276.951946 
409.000000	289.808189 
409.500000	302.794179 
410.000000	316.032241 
410.500000	329.588619 
411.000000	343.475539 
411.500000	357.816031 
412.000000	372.501165 
412.500000	387.594695 
413.000000	403.014105 
413.500000	418.657641 
414.000000	434.417406 
414.500000	450.063621 
415.000000	465.634450 
415.500000	480.886614 
416.000000	495.935001 
416.500000	510.715376 
417.000000	525.326734 
417.500000	539.830089 
418.000000	554.185018 
418.500000	568.546749 
419.000000	582.801230 
419.500000	597.099923 
420.000000	611.310103 
420.500000	625.314799 
421.000000	639.068534 
421.500000	652.435102 
422.000000	665.337732 
422.500000	677.536278 
423.000000	689.090899 
423.500000	699.969807 
424.000000	710.163743 
424.500000	719.736775 
425.000000	728.821324 
425.500000	737.488838 
426.000000	745.653129 
426.500000	753.304623 
427.000000	760.528042 
427.500000	767.281981 
428.000000	773.526701 
428.500000	779.308415 
429.000000	784.677547 
429.500000	789.680228 
430.000000	794.246339 
430.500000	798.351231 
431.000000	802.058716 
431.500000	805.323595 
432.000000	808.169278 
432.500000	810.614888 
433.000000	812.823946 
433.500000	814.788209 
434.000000	816.478115 
434.500000	817.936591 
435.000000	819.165543 
435.500000	820.124532 
436.000000	820.705736 
436.500000	820.994437 
437.000000	820.896168 
437.500000	820.321938 
438.000000	819.285317 
438.500000	817.873586 
439.000000	816.189354 
439.500000	814.242155 
440.000000	812.126205 
440.500000	809.738228 
441.000000	807.030272 
441.500000	803.897630 
442.000000	800.241552 
442.500000	796.139892 
443.000000	791.664723 
443.500000	786.990213 
444.000000	782.092172 
444.500000	777.034910 
445.000000	771.811404 
445.500000	766.337313 
446.000000	760.679233 
446.500000	754.843944 
447.000000	749.001916 
447.500000	743.139614 
448.000000	737.354166 
448.500000	731.590836 
449.000000	725.745820 
449.500000	719.812799 
450.000000	713.638513 
450.500000	707.182944 
451.000000	700.395096 
451.500000	693.397660 
452.000000	686.114905 
452.500000	678.709985 
453.000000	671.374461 
453.500000	664.235443 
454.000000	657.330103 
454.500000	650.540124 
455.000000	643.824630 
455.500000	636.897647 
456.000000	629.755478 
456.500000	622.434276 
457.000000	615.070758 
457.500000	607.824931 
458.000000	600.676218 
458.500000	593.577098 
459.000000	586.345554 
459.500000	578.970734 
460.000000	571.448363 
460.500000	563.879836 
461.000000	556.486304 
461.500000	549.382300 
462.000000	542.591328 
462.500000	536.016964 
463.000000	529.616226 
463.500000	523.288035 
464.000000	517.010695 
464.500000	510.792664 
465.000000	504.648801 
465.500000	498.631384 
466.000000	492.647599 
466.500000	486.751730 
467.000000	480.957263 
467.500000	475.219064 
468.000000	469.592526 
468.500000	464.081747 
469.000000	458.784782 
469.500000	453.645940 
470.000000	448.696198 
470.500000	443.952840 
471.000000	439.278094 
471.500000	434.717630 
472.000000	430.204844 
472.500000	425.705671 
473.000000	421.203608 
473.500000	416.707111 
474.000000	412.268873 
474.500000	407.801474 
475.000000	403.410539 
475.500000	399.089066 
476.000000	394.846304 
476.500000	390.674131 
477.000000	386.580643 
477.500000	382.570875 
478.000000	378.562192 
478.500000	374.600402 
479.000000	370.631525 
479.500000	366.717024 
480.000000	362.894923 
480.500000	359.130901 
481.000000	355.530311 
481.500000	352.012504 
482.000000	348.524384 
482.500000	344.934914 
483.000000	341.309851 
483.500000	337.664094 
484.000000	333.937076 
484.500000	330.230343 
485.000000	326.575589 
485.500000	323.009003 
486.000000	319.480198 
486.500000	316.028061 
487.000000	312.701092 
487.500000	309.397417 
488.000000	306.134270 
488.500000	302.866949 
489.000000	299.596166 
489.500000	296.246157 
490.000000	292.810391 
490.500000	289.332884 
491.000000	285.865252 
491.500000	282.474525 
492.000000	279.194521 
492.500000	276.030287 
493.000000	272.934424 
493.500000	269.847402 
494.000000	266.716968 
494.500000	263.549640 
495.000000	260.375116 
495.500000	257.265027 
496.000000	254.261705 
496.500000	251.346790 
497.000000	248.495319 
497.500000	245.634003 
498.000000	242.735053 
498.500000	239.804048 
499.000000	236.914029 
499.500000	234.094814 
500.000000	231.343517 
500.500000	228.677233 
501.000000	226.086571 
501.500000	223.492974 
502.000000	220.912179 
502.500000	218.332137 
503.000000	215.751942 
503.500000	213.200897 
504.000000	210.696272 
504.500000	208.264877 
505.000000	205.847029 
505.500000	203.462326 
506.000000	201.103263 
506.500000	198.747322 
507.000000	196.374155 
507.500000	194.018317 
508.000000	191.670955 
508.500000	189.329337 
509.000000	186.998057 
509.500000	184.698719 
510.000000	182.413575 
510.500000	180.090580 
511.000000	177.741397 
511.500000	175.347072 
512.000000	172.881450 
512.500000	170.323582 
513.000000	167.703038 
513.500000	165.050593 
514.000000	162.348269 
514.500000	159.627903 
515.000000	156.949627 
515.500000	154.298530 
516.000000	151.676847 
516.500000	149.080575 
517.000000	146.512944 
517.500000	143.954892 
518.000000	141.391905 
518.500000	138.819940 
519.000000	136.216051 
519.500000	133.569972 
520.000000	130.865816 
520.500000	128.116220 
521.000000	125.333014 
521.500000	122.567005 
522.000000	119.799139 
522.500000	117.087716 
523.000000	114.464929 
523.500000	111.942454 
524.000000	109.503244 
524.500000	107.097532 
525.000000	104.757706 
525.500000	102.413719 
526.000000	100.059448 
526.500000	97.694178  
527.000000	95.362246  
527.500000	93.048664  
528.000000	90.749051  
528.500000	88.486701  
529.000000	86.272430  
529.500000	84.107864  
530.000000	81.986417  
530.500000	79.949395  
531.000000	77.982866  
531.500000	76.081356  
532.000000	74.219230  
532.500000	72.411139  
533.000000	70.656732  
533.500000	68.921395  
534.000000	67.226456  
534.500000	65.551257  
535.000000	63.904187  
535.500000	62.278829  
536.000000	60.694903  
536.500000	59.181205  
537.000000	57.731506  
537.500000	56.335502  
538.000000	54.989460  
538.500000	53.673972  
539.000000	52.380617  
539.500000	51.109432  
540.000000	49.878339  
540.500000	48.702406  
541.000000	47.574753  
541.500000	46.503029  
542.000000	45.460287  
542.500000	44.433979  
543.000000	43.418526  
543.500000	42.405808  
544.000000	41.403773  
544.500000	40.419445  
545.000000	39.470244  
545.500000	38.551163  
546.000000	37.666345  
546.500000	36.834102  
547.000000	36.044504  
547.500000	35.274035  
548.000000	34.523224  
548.500000	33.800747  
549.000000	33.096089  
549.500000	32.401423  
550.000000	31.718441  
550.500000	31.046656  
551.000000	30.365289  
551.500000	29.671220  
552.000000	28.981916  
552.500000	28.316619  
553.000000	27.688827  
553.500000	27.091434  
554.000000	26.530291  
554.500000	25.998562  
555.000000	25.475857  
555.500000	24.955324  
556.000000	24.442118  
556.500000	23.955458  
557.000000	23.489840  
557.500000	23.038072  
558.000000	22.595840  
558.500000	22.156595  
559.000000	21.712398  
559.500000	21.246727  
560.000000	20.784925  
560.500000	20.331434  
561.000000	19.891458  
561.500000	19.469471  
562.000000	19.076834  
562.500000	18.715166  
563.000000	18.359584  
563.500000	18.008933  
564.000000	17.654463  
564.500000	17.298840  
565.000000	16.936011  
565.500000	16.569575  
566.000000	16.215478  
566.500000	15.868348  
567.000000	15.536035  
567.500000	15.214547  
568.000000	14.903534  
568.500000	14.594938  
569.000000	14.283614  
569.500000	13.984289  
570.000000	13.694779  
570.500000	13.413332  
571.000000	13.143031  
571.500000	12.884825  
572.000000	12.630172  
572.500000	12.369539  
573.000000	12.105408  
573.500000	11.835424  
574.000000	11.566311  
574.500000	11.304382  
575.000000	11.063194  
575.500000	10.838721  
576.000000	10.630387  
576.500000	10.429367  
577.000000	10.225723  
577.500000	10.021664  
578.000000	9.808144   
578.500000	9.596719   
579.000000	9.388692   
579.500000	9.189168   
580.000000	9.001330   
580.500000	8.813712   
581.000000	8.629018   
581.500000	8.445875   
582.000000	8.268109   
582.500000	8.093111   
583.000000	7.916200   
583.500000	7.746499   
584.000000	7.578816   
584.500000	7.408473   
585.000000	7.244705   
585.500000	7.093146   
586.000000	6.952291   
586.500000	6.818317   
587.000000	6.694218   
587.500000	6.579115   
588.000000	6.458790   
588.500000	6.339298   
589.000000	6.222875   
589.500000	6.106844   
590.000000	5.992057   
590.500000	5.875178   
591.000000	5.764322   
591.500000	5.653870   
592.000000	5.548528   
592.500000	5.450198   
593.000000	5.354343   
593.500000	5.264222   
594.000000	5.175009   
594.500000	5.092925   
595.000000	5.012012   
595.500000	4.933313   

