PE FL                   SPECTRUM    ASCII       PEDS        1.60        
  -1
MI30CE~1.TXT
18/01/15
12:51:07.00
18/01/15
12:51:07.00


598.500000
1









LS55
350.00
3.00
2.50
SCAN
1
20
100
100
0
60
0
1
0
1
7
ON
600 350 
1 0 0
#HDR
-1
-1
#GR
NM

0.00002384185791015625
0.0
400.000000
0.500000
398
8
525.424000
9.574999
#DATA
400.000000	46.523000  
400.500000	47.957000  
401.000000	51.189000  
401.500000	52.453000  
402.000000	57.230000  
402.500000	59.300000  
403.000000	61.207000  
403.500000	64.805000  
404.000000	68.139000  
404.500000	71.721000  
405.000000	76.042000  
405.500000	77.956999  
406.000000	82.652000  
406.500000	85.867000  
407.000000	89.980000  
407.500000	93.327000  
408.000000	101.284000 
408.500000	104.608000 
409.000000	111.523000 
409.500000	114.586000 
410.000000	119.090000 
410.500000	123.458000 
411.000000	126.806000 
411.500000	132.042000 
412.000000	138.182000 
412.500000	144.699000 
413.000000	149.004000 
413.500000	154.065000 
414.000000	159.542000 
414.500000	163.984000 
415.000000	171.427000 
415.500000	177.196000 
416.000000	181.907000 
416.500000	189.863000 
417.000000	194.250000 
417.500000	200.077000 
418.000000	206.100000 
418.500000	210.319000 
419.000000	216.080000 
419.500000	224.625000 
420.000000	227.477000 
420.500000	233.081000 
421.000000	238.935000 
421.500000	243.590000 
422.000000	248.394000 
422.500000	252.572000 
423.000000	258.988000 
423.500000	265.645000 
424.000000	269.471000 
424.500000	275.251000 
425.000000	277.218000 
425.500000	281.848000 
426.000000	287.071000 
426.500000	290.306000 
427.000000	290.791000 
427.500000	296.842000 
428.000000	303.206000 
428.500000	303.585000 
429.000000	306.156000 
429.500000	310.314000 
430.000000	313.692000 
430.500000	321.498000 
431.000000	325.678000 
431.500000	328.060000 
432.000000	332.436000 
432.500000	337.023000 
433.000000	339.547000 
433.500000	341.471000 
434.000000	347.876000 
434.500000	346.923000 
435.000000	351.400000 
435.500000	353.808000 
436.000000	357.705000 
436.500000	361.365000 
437.000000	365.611000 
437.500000	371.287000 
438.000000	372.322000 
438.500000	376.010000 
439.000000	379.730000 
439.500000	379.925000 
440.000000	385.709000 
440.500000	391.232000 
441.000000	393.462000 
441.500000	395.248000 
442.000000	399.352000 
442.500000	395.779000 
443.000000	402.462000 
443.500000	404.068000 
444.000000	409.948000 
444.500000	411.520000 
445.000000	415.069000 
445.500000	420.246000 
446.000000	417.717000 
446.500000	419.484000 
447.000000	421.281000 
447.500000	427.872000 
448.000000	429.845000 
448.500000	428.534000 
449.000000	431.322000 
449.500000	436.112000 
450.000000	438.666000 
450.500000	438.460000 
451.000000	441.793000 
451.500000	441.921000 
452.000000	441.309000 
452.500000	446.901000 
453.000000	452.423000 
453.500000	448.367000 
454.000000	450.003000 
454.500000	456.822000 
455.000000	456.992000 
455.500000	460.580000 
456.000000	462.300000 
456.500000	465.089000 
457.000000	461.661000 
457.500000	460.643000 
458.000000	465.722000 
458.500000	472.428000 
459.000000	473.681000 
459.500000	472.216000 
460.000000	471.157000 
460.500000	477.540000 
461.000000	475.541000 
461.500000	479.071000 
462.000000	482.684000 
462.500000	481.564000 
463.000000	482.525000 
463.500000	483.415000 
464.000000	486.043000 
464.500000	486.707000 
465.000000	484.874000 
465.500000	491.326000 
466.000000	490.482000 
466.500000	490.449000 
467.000000	492.033000 
467.500000	499.393000 
468.000000	497.990000 
468.500000	500.101000 
469.000000	501.391000 
469.500000	502.174000 
470.000000	507.472000 
470.500000	499.871000 
471.000000	504.457000 
471.500000	511.951000 
472.000000	510.819000 
472.500000	513.192000 
473.000000	510.092000 
473.500000	510.197000 
474.000000	511.049000 
474.500000	514.290000 
475.000000	515.356000 
475.500000	520.717000 
476.000000	518.163000 
476.500000	521.080000 
477.000000	519.715000 
477.500000	519.514000 
478.000000	519.503000 
478.500000	516.461000 
479.000000	520.136999 
479.500000	522.934999 
480.000000	522.690000 
480.500000	523.042000 
481.000000	520.641000 
481.500000	523.235000 
482.000000	522.032000 
482.500000	525.353000 
483.000000	525.424000 
483.500000	522.972000 
484.000000	523.994000 
484.500000	520.814000 
485.000000	519.059999 
485.500000	522.095000 
486.000000	522.065000 
486.500000	519.427000 
487.000000	520.127000 
487.500000	517.480000 
488.000000	520.342000 
488.500000	521.463000 
489.000000	517.264000 
489.500000	515.395000 
490.000000	513.668000 
490.500000	515.484000 
491.000000	505.839000 
491.500000	506.270000 
492.000000	509.701000 
492.500000	504.374000 
493.000000	503.503000 
493.500000	501.109000 
494.000000	502.230000 
494.500000	499.103000 
495.000000	490.980000 
495.500000	491.238000 
496.000000	493.740000 
496.500000	493.221000 
497.000000	485.986000 
497.500000	485.780000 
498.000000	481.107000 
498.500000	480.841000 
499.000000	478.071000 
499.500000	475.321000 
500.000000	476.240000 
500.500000	470.067000 
501.000000	466.266000 
501.500000	463.433000 
502.000000	461.141000 
502.500000	457.366000 
503.000000	454.856000 
503.500000	448.754000 
504.000000	448.282000 
504.500000	443.830000 
505.000000	442.328000 
505.500000	437.570000 
506.000000	434.842000 
506.500000	431.217000 
507.000000	430.586000 
507.500000	424.105000 
508.000000	422.647000 
508.500000	417.444000 
509.000000	414.550000 
509.500000	408.874000 
510.000000	402.400000 
510.500000	402.223000 
511.000000	395.666000 
511.500000	390.097000 
512.000000	387.312000 
512.500000	382.933000 
513.000000	380.648000 
513.500000	373.483000 
514.000000	367.654000 
514.500000	359.730000 
515.000000	355.814000 
515.500000	350.641000 
516.000000	345.939000 
516.500000	344.141000 
517.000000	333.954000 
517.500000	327.713000 
518.000000	321.961000 
518.500000	316.437000 
519.000000	313.692000 
519.500000	305.527000 
520.000000	299.590000 
520.500000	296.687000 
521.000000	291.662000 
521.500000	284.987000 
522.000000	277.967000 
522.500000	273.999000 
523.000000	267.522000 
523.500000	260.309000 
524.000000	256.952000 
524.500000	253.150000 
525.000000	246.328000 
525.500000	240.430000 
526.000000	237.940000 
526.500000	233.165000 
527.000000	227.426000 
527.500000	220.990000 
528.000000	214.453000 
528.500000	212.348000 
529.000000	207.550000 
529.500000	198.732000 
530.000000	194.067000 
530.500000	190.541000 
531.000000	184.889000 
531.500000	183.690000 
532.000000	178.793000 
532.500000	172.881000 
533.000000	169.585000 
533.500000	164.724000 
534.000000	161.784000 
534.500000	160.418000 
535.000000	155.863000 
535.500000	151.391000 
536.000000	145.453000 
536.500000	142.790000 
537.000000	139.612000 
537.500000	136.071000 
538.000000	134.142000 
538.500000	130.678000 
539.000000	129.677000 
539.500000	124.016000 
540.000000	123.543000 
540.500000	118.989000 
541.000000	116.303000 
541.500000	115.749000 
542.000000	111.527000 
542.500000	109.436000 
543.000000	105.268000 
543.500000	102.333000 
544.000000	101.485000 
544.500000	98.416000  
545.000000	97.220000  
545.500000	93.819999  
546.000000	93.107000  
546.500000	92.224000  
547.000000	89.171000  
547.500000	87.632000  
548.000000	85.730000  
548.500000	84.937000  
549.000000	82.952000  
549.500000	80.280000  
550.000000	78.846999  
550.500000	75.193000  
551.000000	74.205000  
551.500000	74.134000  
552.000000	72.099000  
552.500000	68.621000  
553.000000	68.123000  
553.500000	66.953000  
554.000000	65.964000  
554.500000	62.593000  
555.000000	63.002000  
555.500000	62.284000  
556.000000	60.181000  
556.500000	59.475000  
557.000000	58.312000  
557.500000	57.727000  
558.000000	55.929000  
558.500000	55.297000  
559.000000	53.823000  
559.500000	52.788000  
560.000000	51.590000  
560.500000	48.865000  
561.000000	49.285000  
561.500000	48.630000  
562.000000	45.628000  
562.500000	45.932000  
563.000000	45.137000  
563.500000	44.699000  
564.000000	42.626000  
564.500000	41.563000  
565.000000	41.426000  
565.500000	41.270000  
566.000000	39.427000  
566.500000	38.306000  
567.000000	37.459000  
567.500000	37.655000  
568.000000	36.153000  
568.500000	35.168000  
569.000000	34.986000  
569.500000	34.524000  
570.000000	32.313000  
570.500000	32.638000  
571.000000	30.894000  
571.500000	30.996000  
572.000000	30.146000  
572.500000	29.637000  
573.000000	29.157000  
573.500000	29.102000  
574.000000	26.685000  
574.500000	25.838000  
575.000000	26.308000  
575.500000	26.091000  
576.000000	24.525000  
576.500000	24.985000  
577.000000	24.412000  
577.500000	23.979000  
578.000000	23.370000  
578.500000	23.314000  
579.000000	22.613000  
579.500000	21.461000  
580.000000	20.502000  
580.500000	20.308000  
581.000000	19.285000  
581.500000	19.856000  
582.000000	19.498000  
582.500000	19.800000  
583.000000	19.289000  
583.500000	17.782000  
584.000000	17.346000  
584.500000	17.232000  
585.000000	16.985000  
585.500000	16.478000  
586.000000	16.494000  
586.500000	15.457000  
587.000000	16.210000  
587.500000	15.443000  
588.000000	15.406000  
588.500000	14.789000  
589.000000	14.264000  
589.500000	14.300000  
590.000000	13.655000  
590.500000	13.336000  
591.000000	13.899000  
591.500000	13.188000  
592.000000	13.813000  
592.500000	12.262000  
593.000000	12.832000  
593.500000	12.078000  
594.000000	12.123000  
594.500000	11.795000  
595.000000	11.218000  
595.500000	11.314000  
596.000000	10.779000  
596.500000	10.964000  
597.000000	10.586000  
597.500000	9.891000   
598.000000	9.574999   
598.500000	9.627000   

