PE FL                   SPECTRUM    ASCII       PEDS        1.60        
  -1
MI3CBE~1.TXT
18/01/15
11:47:29.00
18/01/15
11:47:29.00


598.500000
1









LS55
350.00
3.00
2.50
SCAN
1
20
100
100
0
60
0
1
0
1
7
ON
600 350 
1 0 0
#HDR
-1
-1
#GR
NM

0.00002384185791015625
0.0
400.000000
0.500000
398
8
553.624000
9.750000
#DATA
400.000000	51.912000  
400.500000	59.506000  
401.000000	63.523000  
401.500000	66.156000  
402.000000	71.391000  
402.500000	72.705000  
403.000000	78.706999  
403.500000	81.901000  
404.000000	87.420000  
404.500000	91.648000  
405.000000	96.837000  
405.500000	104.009000 
406.000000	108.432000 
406.500000	113.332000 
407.000000	119.693000 
407.500000	125.277000 
408.000000	130.414000 
408.500000	140.482000 
409.000000	146.145000 
409.500000	151.040000 
410.000000	156.400000 
410.500000	165.170000 
411.000000	171.123000 
411.500000	181.027000 
412.000000	187.461000 
412.500000	193.196000 
413.000000	203.366000 
413.500000	211.112000 
414.000000	216.974000 
414.500000	226.376000 
415.000000	234.341000 
415.500000	244.844000 
416.000000	250.574000 
416.500000	261.945000 
417.000000	268.934000 
417.500000	279.117000 
418.000000	283.276000 
418.500000	289.445000 
419.000000	302.298000 
419.500000	309.709000 
420.000000	319.793000 
420.500000	327.149000 
421.000000	334.122000 
421.500000	340.093000 
422.000000	348.786000 
422.500000	355.572000 
423.000000	361.840000 
423.500000	369.222000 
424.000000	376.421000 
424.500000	382.476000 
425.000000	390.394000 
425.500000	395.936000 
426.000000	403.436000 
426.500000	405.468000 
427.000000	410.992000 
427.500000	417.277000 
428.000000	421.616000 
428.500000	424.695000 
429.000000	429.609000 
429.500000	434.299000 
430.000000	440.538000 
430.500000	446.356000 
431.000000	452.448000 
431.500000	453.731000 
432.000000	461.146000 
432.500000	464.250000 
433.000000	472.432000 
433.500000	473.038000 
434.000000	476.212000 
434.500000	478.834000 
435.000000	480.287000 
435.500000	484.160000 
436.000000	490.796000 
436.500000	497.774000 
437.000000	498.763000 
437.500000	502.485000 
438.000000	507.190000 
438.500000	506.452000 
439.000000	506.947000 
439.500000	511.435000 
440.000000	516.860000 
440.500000	516.973000 
441.000000	515.896000 
441.500000	517.447000 
442.000000	522.616000 
442.500000	522.591000 
443.000000	525.398000 
443.500000	525.450000 
444.000000	533.017000 
444.500000	536.802000 
445.000000	536.425000 
445.500000	535.500000 
446.000000	534.110000 
446.500000	536.059000 
447.000000	535.404000 
447.500000	536.641000 
448.000000	537.961000 
448.500000	538.146000 
449.000000	542.595000 
449.500000	540.227000 
450.000000	539.624000 
450.500000	545.716000 
451.000000	543.902000 
451.500000	544.568000 
452.000000	540.264000 
452.500000	548.716000 
453.000000	547.628000 
453.500000	546.404000 
454.000000	549.736000 
454.500000	548.069000 
455.000000	548.671000 
455.500000	548.519000 
456.000000	553.624000 
456.500000	543.030999 
457.000000	541.856000 
457.500000	546.433000 
458.000000	544.514000 
458.500000	549.438000 
459.000000	549.958000 
459.500000	547.760000 
460.000000	548.107000 
460.500000	547.678000 
461.000000	545.370000 
461.500000	543.702000 
462.000000	548.954000 
462.500000	551.184999 
463.000000	542.768000 
463.500000	546.366000 
464.000000	547.446000 
464.500000	550.304000 
465.000000	547.857999 
465.500000	547.332000 
466.000000	543.333000 
466.500000	540.601000 
467.000000	543.666000 
467.500000	547.424000 
468.000000	551.920000 
468.500000	543.833000 
469.000000	545.072000 
469.500000	543.487000 
470.000000	543.804999 
470.500000	542.526000 
471.000000	545.907000 
471.500000	542.985000 
472.000000	544.666000 
472.500000	544.938000 
473.000000	543.889000 
473.500000	544.123000 
474.000000	540.284000 
474.500000	540.104000 
475.000000	544.331000 
475.500000	543.759000 
476.000000	542.842000 
476.500000	543.671000 
477.000000	541.541000 
477.500000	535.022000 
478.000000	542.356000 
478.500000	542.598000 
479.000000	539.061000 
479.500000	537.236000 
480.000000	537.346000 
480.500000	535.525000 
481.000000	537.863000 
481.500000	535.083999 
482.000000	537.707000 
482.500000	531.740000 
483.000000	531.371000 
483.500000	530.348000 
484.000000	525.578000 
484.500000	530.519000 
485.000000	527.292000 
485.500000	527.080000 
486.000000	527.721000 
486.500000	526.253000 
487.000000	524.401000 
487.500000	519.014000 
488.000000	518.306000 
488.500000	514.785999 
489.000000	513.991000 
489.500000	511.260000 
490.000000	510.853000 
490.500000	513.155000 
491.000000	507.317000 
491.500000	503.115000 
492.000000	502.209000 
492.500000	506.514000 
493.000000	499.810000 
493.500000	499.834000 
494.000000	496.116000 
494.500000	491.257000 
495.000000	488.520000 
495.500000	486.370000 
496.000000	486.453000 
496.500000	485.610000 
497.000000	483.664000 
497.500000	479.133000 
498.000000	474.434000 
498.500000	470.246000 
499.000000	471.602000 
499.500000	467.100000 
500.000000	461.654000 
500.500000	456.060000 
501.000000	457.292000 
501.500000	451.241000 
502.000000	449.044000 
502.500000	446.793000 
503.000000	440.454000 
503.500000	436.818000 
504.000000	436.778000 
504.500000	434.997000 
505.000000	429.203000 
505.500000	421.637000 
506.000000	420.727000 
506.500000	419.318000 
507.000000	413.490000 
507.500000	411.243000 
508.000000	403.159000 
508.500000	403.520000 
509.000000	399.021000 
509.500000	392.154000 
510.000000	391.663000 
510.500000	384.842000 
511.000000	377.609000 
511.500000	376.959000 
512.000000	374.226000 
512.500000	371.327000 
513.000000	362.503000 
513.500000	359.136000 
514.000000	354.693000 
514.500000	347.445000 
515.000000	341.418000 
515.500000	335.267000 
516.000000	329.439000 
516.500000	327.718000 
517.000000	324.188000 
517.500000	314.976000 
518.000000	311.524000 
518.500000	302.926000 
519.000000	299.965000 
519.500000	292.450000 
520.000000	287.871000 
520.500000	279.707000 
521.000000	276.609000 
521.500000	276.258000 
522.000000	265.364000 
522.500000	262.202000 
523.000000	252.130000 
523.500000	249.335000 
524.000000	244.442000 
524.500000	238.994000 
525.000000	233.972000 
525.500000	228.892000 
526.000000	222.536000 
526.500000	217.373000 
527.000000	213.955000 
527.500000	210.118000 
528.000000	204.153000 
528.500000	201.899000 
529.000000	194.398000 
529.500000	192.701000 
530.000000	185.454000 
530.500000	178.220000 
531.000000	174.308000 
531.500000	171.125000 
532.000000	165.973000 
532.500000	163.702000 
533.000000	160.538000 
533.500000	156.740000 
534.000000	155.099000 
534.500000	148.710000 
535.000000	146.619000 
535.500000	140.650000 
536.000000	138.287000 
536.500000	134.021000 
537.000000	128.312000 
537.500000	127.328000 
538.000000	126.792000 
538.500000	120.614000 
539.000000	119.500000 
539.500000	115.553000 
540.000000	112.938000 
540.500000	112.290000 
541.000000	109.325000 
541.500000	107.655000 
542.000000	105.526000 
542.500000	104.142000 
543.000000	101.418000 
543.500000	98.185000  
544.000000	96.215999  
544.500000	94.000000  
545.000000	89.230000  
545.500000	88.137000  
546.000000	88.297000  
546.500000	85.145000  
547.000000	84.874000  
547.500000	82.179000  
548.000000	79.491000  
548.500000	77.837000  
549.000000	75.517000  
549.500000	74.608999  
550.000000	72.650000  
550.500000	71.244000  
551.000000	69.572999  
551.500000	68.873000  
552.000000	66.593000  
552.500000	65.293000  
553.000000	64.648000  
553.500000	63.694000  
554.000000	61.221000  
554.500000	60.501000  
555.000000	59.680000  
555.500000	58.303000  
556.000000	56.707000  
556.500000	56.173000  
557.000000	54.435000  
557.500000	53.052000  
558.000000	51.806000  
558.500000	52.048000  
559.000000	49.890000  
559.500000	47.998000  
560.000000	47.604000  
560.500000	46.409000  
561.000000	46.693000  
561.500000	45.043000  
562.000000	43.502000  
562.500000	42.542000  
563.000000	40.742000  
563.500000	40.895000  
564.000000	40.387000  
564.500000	39.496000  
565.000000	39.155000  
565.500000	38.347000  
566.000000	37.419000  
566.500000	35.679000  
567.000000	35.323000  
567.500000	35.280000  
568.000000	34.408000  
568.500000	33.035000  
569.000000	32.573000  
569.500000	31.066000  
570.000000	30.405000  
570.500000	30.984000  
571.000000	30.492000  
571.500000	29.591000  
572.000000	28.715000  
572.500000	28.441000  
573.000000	28.196000  
573.500000	27.261000  
574.000000	26.287000  
574.500000	25.924000  
575.000000	25.427000  
575.500000	24.637000  
576.000000	23.888000  
576.500000	22.869000  
577.000000	22.382000  
577.500000	22.160000  
578.000000	22.020000  
578.500000	21.169000  
579.000000	20.722000  
579.500000	21.013000  
580.000000	20.223000  
580.500000	20.119000  
581.000000	19.542000  
581.500000	19.437000  
582.000000	19.004000  
582.500000	18.467000  
583.000000	17.494000  
583.500000	17.175000  
584.000000	16.959000  
584.500000	16.486000  
585.000000	16.085000  
585.500000	15.600000  
586.000000	15.414000  
586.500000	15.078000  
587.000000	14.574000  
587.500000	15.188000  
588.000000	14.545000  
588.500000	14.395000  
589.000000	14.395000  
589.500000	13.503000  
590.000000	13.755000  
590.500000	13.496000  
591.000000	12.652000  
591.500000	12.359000  
592.000000	12.082000  
592.500000	12.317000  
593.000000	11.463000  
593.500000	12.464000  
594.000000	11.959000  
594.500000	11.464000  
595.000000	11.529000  
595.500000	11.635000  
596.000000	10.844000  
596.500000	10.652000  
597.000000	10.029000  
597.500000	10.213000  
598.000000	10.299000  
598.500000	9.750000   

