PE FL       SUBTECH     SPECTRUM    ASCII       PEDS        1.60        
  -1
MIX_LQ_6.TXT
18/01/15
14:56:39.00
18/01/16
10:23:18.00


600.000000
1









LS55
350.00
3.00
2.50
SCAN
1
20
100
100
0
60
0
1
0
1
7
ON
600 350 
1 0 0
#HDR
-1
-1
#GR
NM

0.00002384185791015625
0.0
400.000000
0.500000
401
8
848.538000
3.369000
#DATA
400.000000	244.586000 
400.500000	243.626000 
401.000000	256.408000 
401.500000	266.084000 
402.000000	280.790000 
402.500000	293.241000 
403.000000	304.825000 
403.500000	316.725000 
404.000000	326.841000 
404.500000	342.720000 
405.000000	356.657000 
405.500000	370.170000 
406.000000	386.699000 
406.500000	399.120000 
407.000000	412.809000 
407.500000	427.422000 
408.000000	442.049000 
408.500000	455.552000 
409.000000	466.097000 
409.500000	482.479000 
410.000000	495.906000 
410.500000	508.950000 
411.000000	523.972000 
411.500000	543.412000 
412.000000	560.110000 
412.500000	571.196000 
413.000000	581.576000 
413.500000	603.546000 
414.000000	618.934000 
414.500000	631.125000 
415.000000	643.878000 
415.500000	655.982998 
416.000000	669.694000 
416.500000	676.232998 
417.000000	687.895000 
417.500000	701.910000 
418.000000	712.987000 
418.500000	723.391000 
419.000000	732.098000 
419.500000	742.517000 
420.000000	753.811000 
420.500000	764.694000 
421.000000	772.130000 
421.500000	781.636000 
422.000000	784.477000 
422.500000	798.618000 
423.000000	803.446000 
423.500000	806.557000 
424.000000	812.169000 
424.500000	815.835000 
425.000000	819.881999 
425.500000	824.304999 
426.000000	833.648000 
426.500000	830.785998 
427.000000	840.479000 
427.500000	841.453000 
428.000000	842.120000 
428.500000	842.410000 
429.000000	843.348000 
429.500000	848.243000 
430.000000	846.176000 
430.500000	848.362000 
431.000000	842.933000 
431.500000	844.125000 
432.000000	844.418000 
432.500000	847.114000 
433.000000	847.572000 
433.500000	848.538000 
434.000000	842.711000 
434.500000	841.675000 
435.000000	840.581000 
435.500000	837.797000 
436.000000	837.038000 
436.500000	831.925000 
437.000000	832.732998 
437.500000	829.641000 
438.000000	824.029000 
438.500000	822.968000 
439.000000	820.792000 
439.500000	811.982000 
440.000000	807.537000 
440.500000	800.998000 
441.000000	799.228000 
441.500000	792.135000 
442.000000	789.825000 
442.500000	788.410000 
443.000000	776.793000 
443.500000	769.535998 
444.000000	767.208998 
444.500000	769.899000 
445.000000	755.179999 
445.500000	749.073000 
446.000000	742.564000 
446.500000	730.836000 
447.000000	722.434998 
447.500000	720.124000 
448.000000	708.228000 
448.500000	707.909000 
449.000000	699.594000 
449.500000	690.980000 
450.000000	680.456000 
450.500000	680.104000 
451.000000	671.716000 
451.500000	664.815000 
452.000000	653.607000 
452.500000	648.958998 
453.000000	638.075000 
453.500000	630.780000 
454.000000	623.921000 
454.500000	616.862000 
455.000000	605.677000 
455.500000	600.764000 
456.000000	594.218000 
456.500000	582.992000 
457.000000	577.948000 
457.500000	574.384000 
458.000000	566.107998 
458.500000	552.182000 
459.000000	541.518000 
459.500000	537.481000 
460.000000	533.116000 
460.500000	526.302000 
461.000000	518.187000 
461.500000	508.239000 
462.000000	501.959000 
462.500000	497.801000 
463.000000	489.813000 
463.500000	481.021000 
464.000000	470.041000 
464.500000	470.294000 
465.000000	461.519000 
465.500000	449.770000 
466.000000	450.887000 
466.500000	439.760000 
467.000000	433.888000 
467.500000	432.154000 
468.000000	423.352000 
468.500000	415.733000 
469.000000	414.138000 
469.500000	408.232000 
470.000000	399.507000 
470.500000	396.362000 
471.000000	392.750000 
471.500000	386.304000 
472.000000	379.768000 
472.500000	375.296000 
473.000000	372.437000 
473.500000	367.277000 
474.000000	357.992000 
474.500000	355.048000 
475.000000	352.544000 
475.500000	346.755000 
476.000000	339.543000 
476.500000	340.102000 
477.000000	335.344000 
477.500000	329.252000 
478.000000	324.666000 
478.500000	322.451000 
479.000000	320.247000 
479.500000	313.980000 
480.000000	310.733000 
480.500000	304.619000 
481.000000	303.320000 
481.500000	300.791000 
482.000000	295.695000 
482.500000	296.195000 
483.000000	289.597000 
483.500000	284.282000 
484.000000	281.730000 
484.500000	275.327000 
485.000000	272.783000 
485.500000	270.235000 
486.000000	264.899000 
486.500000	264.032000 
487.000000	260.852000 
487.500000	257.310000 
488.000000	256.160000 
488.500000	251.879000 
489.000000	249.339000 
489.500000	243.704000 
490.000000	239.835000 
490.500000	237.808000 
491.000000	235.559000 
491.500000	231.920000 
492.000000	229.300000 
492.500000	228.040000 
493.000000	224.050000 
493.500000	222.887000 
494.000000	222.596000 
494.500000	216.574000 
495.000000	212.840000 
495.500000	211.431000 
496.000000	213.022000 
496.500000	209.030000 
497.000000	204.557000 
497.500000	200.961000 
498.000000	199.472000 
498.500000	196.305000 
499.000000	194.335000 
499.500000	192.575000 
500.000000	189.979000 
500.500000	187.624000 
501.000000	185.773000 
501.500000	181.582000 
502.000000	181.282000 
502.500000	177.648000 
503.000000	175.050000 
503.500000	172.655000 
504.000000	171.275000 
504.500000	171.011000 
505.000000	166.029000 
505.500000	163.479000 
506.000000	163.085000 
506.500000	161.791000 
507.000000	160.619000 
507.500000	154.155000 
508.000000	154.586000 
508.500000	149.429000 
509.000000	148.111000 
509.500000	146.511000 
510.000000	145.023000 
510.500000	142.310000 
511.000000	142.008000 
511.500000	139.959000 
512.000000	137.661000 
512.500000	133.647000 
513.000000	131.550000 
513.500000	129.218000 
514.000000	128.881000 
514.500000	125.766000 
515.000000	123.195000 
515.500000	121.818000 
516.000000	119.477000 
516.500000	116.911000 
517.000000	114.546000 
517.500000	111.611000 
518.000000	110.576000 
518.500000	106.144000 
519.000000	107.268000 
519.500000	104.472000 
520.000000	102.442000 
520.500000	101.313000 
521.000000	97.539000  
521.500000	95.268000  
522.000000	92.349999  
522.500000	91.691999  
523.000000	87.715000  
523.500000	86.830000  
524.000000	86.566999  
524.500000	82.898000  
525.000000	80.742000  
525.500000	79.180000  
526.000000	77.657000  
526.500000	76.699000  
527.000000	73.848000  
527.500000	72.808000  
528.000000	69.086000  
528.500000	68.869000  
529.000000	66.518000  
529.500000	65.227000  
530.000000	63.822000  
530.500000	63.752000  
531.000000	59.721000  
531.500000	59.633000  
532.000000	56.981000  
532.500000	57.042000  
533.000000	55.600000  
533.500000	51.483000  
534.000000	52.647000  
534.500000	51.419000  
535.000000	50.082000  
535.500000	48.352000  
536.000000	46.046000  
536.500000	46.355000  
537.000000	44.923000  
537.500000	44.416000  
538.000000	42.677000  
538.500000	43.153000  
539.000000	41.198000  
539.500000	40.040000  
540.000000	39.214000  
540.500000	38.280000  
541.000000	37.005000  
541.500000	37.015000  
542.000000	34.355000  
542.500000	33.486000  
543.000000	33.548000  
543.500000	33.727000  
544.000000	32.417000  
544.500000	31.220000  
545.000000	31.702000  
545.500000	29.756000  
546.000000	29.592000  
546.500000	29.845000  
547.000000	28.153000  
547.500000	27.564000  
548.000000	26.653000  
548.500000	26.535000  
549.000000	26.191000  
549.500000	25.608000  
550.000000	24.279000  
550.500000	23.508000  
551.000000	23.648000  
551.500000	23.940000  
552.000000	23.531000  
552.500000	22.423000  
553.000000	22.161000  
553.500000	21.856000  
554.000000	21.404000  
554.500000	20.711000  
555.000000	20.640000  
555.500000	19.116000  
556.000000	19.745000  
556.500000	18.808000  
557.000000	18.420000  
557.500000	18.186000  
558.000000	17.378000  
558.500000	18.296000  
559.000000	16.904000  
559.500000	16.954000  
560.000000	16.686000  
560.500000	16.492000  
561.000000	15.621000  
561.500000	15.858000  
562.000000	15.734000  
562.500000	15.039000  
563.000000	14.928000  
563.500000	14.689000  
564.000000	13.909000  
564.500000	13.601000  
565.000000	13.327000  
565.500000	13.419000  
566.000000	12.928000  
566.500000	13.161000  
567.000000	12.056000  
567.500000	12.090000  
568.000000	12.074000  
568.500000	12.319000  
569.000000	11.948000  
569.500000	11.270000  
570.000000	10.554000  
570.500000	10.151000  
571.000000	10.772000  
571.500000	9.983000   
572.000000	9.487000   
572.500000	10.171000  
573.000000	9.891999   
573.500000	10.342000  
574.000000	10.041000  
574.500000	9.250000   
575.000000	8.956000   
575.500000	8.443000   
576.000000	8.416000   
576.500000	9.092000   
577.000000	8.667000   
577.500000	8.653000   
578.000000	8.423000   
578.500000	7.931000   
579.000000	7.982000   
579.500000	7.704000   
580.000000	8.086000   
580.500000	7.357000   
581.000000	7.545000   
581.500000	7.103000   
582.000000	6.638000   
582.500000	6.408000   
583.000000	6.849000   
583.500000	6.810000   
584.000000	6.889000   
584.500000	6.938000   
585.000000	6.897000   
585.500000	5.984000   
586.000000	5.595000   
586.500000	5.808000   
587.000000	5.812000   
587.500000	5.682000   
588.000000	5.145000   
588.500000	5.674000   
589.000000	5.457000   
589.500000	5.076000   
590.000000	5.363000   
590.500000	5.266000   
591.000000	4.823000   
591.500000	5.135000   
592.000000	4.846000   
592.500000	5.119000   
593.000000	5.243000   
593.500000	5.022000   
594.000000	4.879000   
594.500000	4.627000   
595.000000	4.882000   
595.500000	4.506000   
596.000000	4.643000   
596.500000	4.319000   
597.000000	4.458000   
597.500000	4.066000   
598.000000	4.288000   
598.500000	4.450000   
599.000000	4.498000   
599.500000	4.189000   
600.000000	3.369000   

