PE FL                   SPECTRUM    ASCII       PEDS        1.60        
  -1
MIX_LQ~3.TXT
18/01/15
15:19:29.00
18/01/15
15:19:29.00


598.500000
1









LS55
350.00
3.00
2.50
SCAN
1
20
100
100
0
60
0
1
0
1
7
ON
600 350 
1 0 0
#HDR
-1
-1
#GR
NM

0.00002384185791015625
0.0
400.000000
0.500000
398
8
780.679000
4.193000
#DATA
400.000000	215.959000 
400.500000	229.684000 
401.000000	238.757000 
401.500000	249.175000 
402.000000	261.842000 
402.500000	274.500000 
403.000000	284.123000 
403.500000	298.797000 
404.000000	306.058000 
404.500000	315.309000 
405.000000	329.958000 
405.500000	345.840000 
406.000000	359.615000 
406.500000	371.085000 
407.000000	384.448000 
407.500000	397.054000 
408.000000	410.521000 
408.500000	421.881000 
409.000000	436.326000 
409.500000	449.954000 
410.000000	463.555000 
410.500000	473.446000 
411.000000	486.199000 
411.500000	500.099000 
412.000000	515.488000 
412.500000	529.907000 
413.000000	540.529000 
413.500000	551.492000 
414.000000	568.254000 
414.500000	581.337000 
415.000000	593.646000 
415.500000	604.529000 
416.000000	615.429000 
416.500000	625.085000 
417.000000	638.117000 
417.500000	645.558000 
418.000000	654.410000 
418.500000	667.544000 
419.000000	678.445000 
419.500000	688.047000 
420.000000	698.489000 
420.500000	700.876000 
421.000000	712.877000 
421.500000	721.016000 
422.000000	726.521000 
422.500000	732.000000 
423.000000	736.138000 
423.500000	741.593000 
424.000000	747.768000 
424.500000	751.920000 
425.000000	755.271000 
425.500000	757.405999 
426.000000	763.039000 
426.500000	762.821000 
427.000000	770.291000 
427.500000	773.989000 
428.000000	775.603000 
428.500000	776.984000 
429.000000	778.532000 
429.500000	779.293000 
430.000000	777.176000 
430.500000	775.591000 
431.000000	779.083000 
431.500000	772.670000 
432.000000	780.465000 
432.500000	780.679000 
433.000000	777.434999 
433.500000	779.714000 
434.000000	774.085000 
434.500000	774.117000 
435.000000	774.130000 
435.500000	772.972000 
436.000000	774.019000 
436.500000	772.961000 
437.000000	771.002000 
437.500000	765.128000 
438.000000	763.016000 
438.500000	754.363000 
439.000000	752.280999 
439.500000	756.585000 
440.000000	753.844000 
440.500000	747.826000 
441.000000	743.497000 
441.500000	737.630000 
442.000000	736.446000 
442.500000	731.493000 
443.000000	727.575000 
443.500000	723.065000 
444.000000	711.421000 
444.500000	712.539000 
445.000000	705.279000 
445.500000	699.400000 
446.000000	692.027000 
446.500000	685.868000 
447.000000	677.684000 
447.500000	677.011000 
448.000000	663.211000 
448.500000	659.038000 
449.000000	658.534000 
449.500000	651.318000 
450.000000	641.088000 
450.500000	640.741000 
451.000000	639.052000 
451.500000	626.707000 
452.000000	619.627000 
452.500000	612.825000 
453.000000	602.440000 
453.500000	593.642000 
454.000000	591.990000 
454.500000	579.468000 
455.000000	576.067000 
455.500000	568.377000 
456.000000	559.827000 
456.500000	553.708999 
457.000000	547.885000 
457.500000	547.716000 
458.000000	533.717000 
458.500000	526.292000 
459.000000	522.696000 
459.500000	515.429999 
460.000000	510.425000 
460.500000	498.816000 
461.000000	491.425000 
461.500000	486.675000 
462.000000	482.737000 
462.500000	474.015000 
463.000000	466.295000 
463.500000	454.622000 
464.000000	454.998000 
464.500000	450.548000 
465.000000	445.358000 
465.500000	434.975000 
466.000000	429.044000 
466.500000	425.128000 
467.000000	416.132000 
467.500000	409.552000 
468.000000	409.754000 
468.500000	401.962000 
469.000000	398.630000 
469.500000	396.639000 
470.000000	392.124000 
470.500000	387.533000 
471.000000	381.908000 
471.500000	377.509000 
472.000000	372.018000 
472.500000	365.991000 
473.000000	359.665000 
473.500000	355.201000 
474.000000	352.407000 
474.500000	352.194000 
475.000000	346.301000 
475.500000	341.629000 
476.000000	337.428000 
476.500000	331.604000 
477.000000	332.841000 
477.500000	327.131000 
478.000000	321.830000 
478.500000	315.119000 
479.000000	314.556000 
479.500000	310.433000 
480.000000	307.625000 
480.500000	302.762000 
481.000000	299.878000 
481.500000	297.975000 
482.000000	293.458000 
482.500000	289.057000 
483.000000	289.464000 
483.500000	286.320000 
484.000000	281.879000 
484.500000	277.693000 
485.000000	275.403000 
485.500000	271.501000 
486.000000	267.290000 
486.500000	262.876000 
487.000000	262.643000 
487.500000	261.848000 
488.000000	257.716000 
488.500000	254.146000 
489.000000	251.370000 
489.500000	249.596000 
490.000000	244.656000 
490.500000	243.294000 
491.000000	239.707000 
491.500000	237.217000 
492.000000	233.394000 
492.500000	233.121000 
493.000000	227.956000 
493.500000	228.043000 
494.000000	224.080000 
494.500000	218.763000 
495.000000	218.953000 
495.500000	214.981000 
496.000000	216.058000 
496.500000	212.359000 
497.000000	211.593000 
497.500000	208.190000 
498.000000	205.887000 
498.500000	204.050000 
499.000000	200.204000 
499.500000	197.742000 
500.000000	198.280000 
500.500000	193.691000 
501.000000	192.939000 
501.500000	189.070000 
502.000000	187.169000 
502.500000	186.791000 
503.000000	182.615000 
503.500000	180.404000 
504.000000	177.406000 
504.500000	175.818000 
505.000000	173.566000 
505.500000	171.372000 
506.000000	169.272000 
506.500000	166.347000 
507.000000	164.553000 
507.500000	164.609000 
508.000000	163.229000 
508.500000	159.078000 
509.000000	154.782000 
509.500000	152.701000 
510.000000	151.003000 
510.500000	150.306000 
511.000000	147.902000 
511.500000	145.946000 
512.000000	143.467000 
512.500000	139.624000 
513.000000	140.796000 
513.500000	139.035000 
514.000000	136.198000 
514.500000	135.894000 
515.000000	132.320000 
515.500000	127.254000 
516.000000	125.056000 
516.500000	124.211000 
517.000000	121.757000 
517.500000	117.917000 
518.000000	117.338000 
518.500000	114.229000 
519.000000	111.932000 
519.500000	110.462000 
520.000000	107.741000 
520.500000	105.646000 
521.000000	101.560000 
521.500000	98.660000  
522.000000	98.664000  
522.500000	95.930000  
523.000000	95.044000  
523.500000	93.440000  
524.000000	90.688999  
524.500000	89.661000  
525.000000	85.584999  
525.500000	84.667000  
526.000000	81.227999  
526.500000	81.069999  
527.000000	78.273000  
527.500000	76.458000  
528.000000	73.620000  
528.500000	74.041000  
529.000000	70.308000  
529.500000	70.415000  
530.000000	67.971000  
530.500000	66.036000  
531.000000	65.343000  
531.500000	63.100000  
532.000000	62.026000  
532.500000	59.336000  
533.000000	58.019000  
533.500000	56.176000  
534.000000	54.326000  
534.500000	54.794000  
535.000000	51.659000  
535.500000	50.279000  
536.000000	49.622000  
536.500000	47.759000  
537.000000	47.888000  
537.500000	45.742000  
538.000000	45.785000  
538.500000	45.110000  
539.000000	43.456000  
539.500000	42.875000  
540.000000	42.212000  
540.500000	40.765000  
541.000000	39.999000  
541.500000	40.014000  
542.000000	37.820000  
542.500000	36.181000  
543.000000	37.336000  
543.500000	35.997000  
544.000000	34.116000  
544.500000	34.476000  
545.000000	32.860000  
545.500000	31.448000  
546.000000	30.315000  
546.500000	31.244000  
547.000000	31.103000  
547.500000	29.265000  
548.000000	28.482000  
548.500000	27.903000  
549.000000	28.080000  
549.500000	26.548000  
550.000000	26.454000  
550.500000	25.158000  
551.000000	25.287000  
551.500000	25.122000  
552.000000	24.473000  
552.500000	23.127000  
553.000000	23.602000  
553.500000	23.516000  
554.000000	22.831000  
554.500000	22.310000  
555.000000	21.331000  
555.500000	20.461000  
556.000000	20.839000  
556.500000	20.405000  
557.000000	20.269000  
557.500000	19.540000  
558.000000	18.129000  
558.500000	18.589000  
559.000000	18.490000  
559.500000	18.096000  
560.000000	16.892000  
560.500000	16.973000  
561.000000	17.294000  
561.500000	17.313000  
562.000000	15.612000  
562.500000	15.656000  
563.000000	15.394000  
563.500000	14.904000  
564.000000	14.753000  
564.500000	14.880000  
565.000000	13.888000  
565.500000	14.040000  
566.000000	13.785000  
566.500000	13.878000  
567.000000	13.421000  
567.500000	12.789000  
568.000000	12.957000  
568.500000	12.329000  
569.000000	12.026000  
569.500000	12.314000  
570.000000	12.051000  
570.500000	11.356000  
571.000000	11.345000  
571.500000	11.403000  
572.000000	10.971000  
572.500000	10.569000  
573.000000	10.529000  
573.500000	10.327000  
574.000000	10.647000  
574.500000	10.429000  
575.000000	9.689000   
575.500000	9.084000   
576.000000	9.494999   
576.500000	9.055999   
577.000000	8.717000   
577.500000	8.564000   
578.000000	8.162000   
578.500000	8.007000   
579.000000	8.406000   
579.500000	8.323000   
580.000000	8.231000   
580.500000	7.795000   
581.000000	7.505000   
581.500000	8.066000   
582.000000	7.345000   
582.500000	6.889000   
583.000000	6.688000   
583.500000	6.618000   
584.000000	7.101000   
584.500000	6.577000   
585.000000	6.776000   
585.500000	6.558000   
586.000000	6.603000   
586.500000	6.396000   
587.000000	5.785000   
587.500000	5.750000   
588.000000	6.036000   
588.500000	6.134000   
589.000000	5.931000   
589.500000	5.801000   
590.000000	5.423000   
590.500000	5.704000   
591.000000	5.645000   
591.500000	5.321000   
592.000000	5.464000   
592.500000	5.148000   
593.000000	5.261000   
593.500000	5.365000   
594.000000	5.139000   
594.500000	4.937000   
595.000000	4.704000   
595.500000	4.462000   
596.000000	4.714000   
596.500000	5.200000   
597.000000	4.621000   
597.500000	4.193000   
598.000000	4.438000   
598.500000	4.215000   

